#Wavelength [nm]	White Std.	Dark spec	0[s]	20.578[s]	40.667[s]	60.747[s]	80.814[s]	100.892[s]	120.956[s]	141.017[s]	161.122[s]	181.21[s]	201.3[s]	221.359[s]	241.466[s]	261.615[s]	281.707[s]	301.819[s]	301.831[s]
420.156	2097.42	1031.26	145.927	158.66	127.46	170.86	184.06	156.86	142.46	149.26	105.66	157.46	160.06	162.46	148.46	116.46	139.26	151.46	151.46
420.431	2166.58	1035.82	176.353	145.62	157.02	178.82	170.02	159.02	155.02	163.22	157.82	152.82	153.62	177.42	147.62	193.22	151.02	157.22	157.22
420.706	2268.67	1032.7	156.28	144.88	155.08	154.88	152.08	168.08	133.28	145.28	162.68	167.28	160.28	166.28	174.28	160.88	160.08	164.28	164.28
420.981	2380.65	1035.14	175.02	141.42	142.72	151.42	176.62	176.82	168.22	183.42	176.42	181.02	126.62	149.82	170.82	154.82	151.22	156.02	156.02
421.256	2499.86	1037.35	161.453	184.92	158.12	196.32	153.52	170.92	212.72	162.72	188.32	169.92	161.52	197.72	187.72	164.52	145.92	168.92	168.92
421.531	2620.01	1033.08	192.787	200.32	211.32	199.92	194.32	174.72	168.72	179.72	175.92	174.32	172.52	173.92	218.32	183.72	196.42	195.32	195.32
421.805	2755.52	1029.52	207.993	205.66	184.26	204.46	221.86	169.66	220.46	204.26	195.86	185.86	183.66	216.46	184.86	198.26	215.06	199.46	199.46
422.08	2816.77	1032.84	201.853	184.52	208.32	170.52	160.32	192.72	222.32	204.12	192.12	192.92	202.52	202.72	197.32	177.12	189.92	197.32	197.32
422.355	3038.76	1034.96	220.667	233.8	222.8	214.8	199.2	222.6	215.2	197.6	226	170.2	206	217.4	168.4	183.8	208.6	197.8	197.8
422.63	3131.63	1037.82	207.333	213.4	195.8	209.2	196.4	198.6	205.8	217	190.2	209.4	163.6	205.4	202.6	199	191	212.2	212.2
422.904	3226.56	1038.72	226.46	227.06	228.86	238.86	231.26	225.66	220.86	224.66	217.46	207.56	211.66	207.86	205.46	242.46	222.86	223.46	223.46
423.179	3334.87	1030.58	248.82	223.22	236.42	234.42	260.42	234.42	230.02	226.82	225.42	238.42	206.22	231.62	250.42	208.22	208.22	218.62	218.62
423.453	3481.44	1034.74	229.74	239.14	218.14	247.14	217.94	240.34	244.34	239.54	234.74	240.74	221.54	243.94	234.54	246.34	216.14	268.14	268.14
423.728	3684.03	1033.62	257.033	250.1	260.9	265.5	249.5	263.9	259.9	242.9	248.5	252.5	252.1	263.9	282.1	256.9	240.3	234.3	234.3
424.002	3801.02	1046.92	267.087	258.82	262.42	272.82	252.22	257.02	258.02	249.82	237.42	215.82	213.62	226.62	264.82	260.22	244.82	248.22	248.22
424.276	3962.07	1037.34	265.387	284.92	253.12	287.32	271.72	269.72	257.12	279.72	248.52	285.32	260.72	253.52	263.12	281.92	266.52	266.52	266.52
424.551	4161.04	1027.9	281.54	287.74	274.74	251.74	273.94	271.54	273.34	272.14	249.54	284.74	285.14	281.94	287.74	271.14	252.94	239.34	239.34
424.825	4324.26	1037.3	307.12	269.32	287.32	287.32	265.92	306.32	294.72	287.92	296.72	266.72	288.72	262.52	308.52	300.32	304.52	267.12	267.12
425.099	4500.9	1026.48	295.913	311.98	286.78	299.78	306.58	296.18	284.18	291.78	285.58	296.98	308.18	304.18	298.18	312.38	286.18	270.58	270.58
425.373	4679.09	1041.56	310.3	302.5	272.9	317.1	299.1	305.9	298.1	300.7	299.9	305.5	309.5	288.5	300.9	317.9	297.5	318.5	318.5
425.647	4928.73	1035.08	343.74	341.74	308.34	326.34	346.94	343.94	357.74	307.74	313.74	312.14	315.94	300.54	326.74	330.54	309.94	372.34	372.34
425.921	5037.36	1034.88	338.773	310.24	309.44	313.44	344.24	312.24	351.44	325.84	329.24	319.24	316.44	319.24	332.24	317.04	340.64	317.64	317.64
426.195	5113.26	1032.28	338.513	358.38	340.38	309.18	329.58	369.98	329.58	302.78	312.98	313.78	322.78	335.18	331.58	329.38	337.18	337.98	337.98
426.469	5385.73	1034.68	345.8	344.2	348.6	351.8	362.8	375	363.8	339.8	345	346.2	350.6	346	371.6	372.8	325.4	331.4	331.4
426.743	5649.55	1032.1	371.507	380.04	349.84	403.24	368.04	353.84	349.04	365.24	372.44	370.84	346.84	380.04	339.84	338.04	351.44	373.24	373.24
427.017	5781.29	1031.8	373.973	391.64	360.24	363.24	364.44	350.64	371.24	375.64	352.04	362.24	346.24	385.24	384.84	374.04	358.24	398.04	398.04
427.291	6014.73	1028.98	401.267	379.2	402	391.6	395.6	398.2	381.4	397	374.6	362.4	407	385	416.8	363.4	384	402.2	402.2
427.565	6244.66	1025.2	402.373	400.84	410.44	412.84	380.04	387.24	414.64	390.44	402.04	414.84	396.64	409.64	418.64	410.84	417.24	404.64	404.64
427.838	6431.49	1040.64	423.553	414.62	439.02	448.42	395.62	405.02	403.42	407.02	426.22	387.42	411.42	420.22	411.22	441.82	402.82	392.62	392.62
428.112	6663.32	1040.46	447.28	435.28	419.48	391.08	420.48	417.28	422.68	377.68	426.28	417.08	410.28	429.68	426.48	403.68	412.08	403.28	403.28
428.385	6841.81	1032.9	444.14	420.94	429.54	433.54	423.34	431.14	440.14	414.14	412.74	406.54	382.94	427.34	419.34	441.74	429.34	439.74	439.74
428.659	7079.69	1030.9	470.833	481.1	463.3	461.5	492.1	473.3	461.3	471.7	464.5	436.9	429.1	461.9	449.9	484.1	451.2	467.7	467.7
428.932	7310.97	1034.04	482.213	465.28	481.08	479.88	469.48	458.28	432.08	490.48	455.88	429.48	464.08	483.48	447.48	455.68	467.08	495.48	495.48
429.206	7491.87	1045.2	491.833	449.1	478.3	483.5	461.1	464.1	471.3	470.1	455.9	466.9	471.1	467.1	474.3	484.1	464.3	470.1	470.1
429.479	7851.67	1029.7	506.1	491.1	470.9	453.1	485.7	477.3	494.5	492.7	476.5	481.1	481.3	512.3	484.7	487.7	499.9	471.1	471.1
429.753	7903.38	1031.94	526.38	518.98	479.58	483.38	490.98	487.58	516.38	503.58	515.18	502.78	489.18	454.98	492.78	512.38	474.18	485.18	485.18
430.026	8105.87	1037.74	513.12	505.32	501.52	535.72	519.92	482.52	534.52	514.12	501.52	499.12	514.72	523.52	527.32	507.72	517.52	504.52	504.52
430.299	8422.05	1035.98	561.373	527.44	524.04	522.64	547.84	518.84	553.84	533.24	528.24	524.64	520.44	512.24	535.04	520.84	535.04	511.84	511.84
430.572	8729.51	1035.42	580.547	602.68	552.08	553.08	567.68	555.68	554.68	549.88	578.68	555.68	525.08	546.68	535.08	548.68	553.28	567.28	567.28
430.845	8948.34	1042.98	571.247	575.38	564.38	552.38	589.18	561.78	571.58	612.18	586.38	552.38	580.98	547.78	576.78	573.78	577.18	540.78	540.78
431.118	9027.42	1039.3	606.347	592.48	576.88	589.68	606.48	582.88	589.68	573.68	579.28	544.88	553.08	589.28	540.88	565.88	564.28	586.28	586.28
431.391	9179.7	1031.68	582.987	589.72	580.52	595.92	582.52	580.92	582.12	570.12	581.72	579.32	583.32	570.72	587.92	593.32	595.32	591.92	591.92
431.664	9421.46	1030.9	627.313	604.38	584.98	606.38	629.78	590.18	624.78	587.98	613.18	595.98	581.38	595.18	571.58	623.98	589.78	612.18	612.18
431.937	9687.49	1036.92	638.607	645.34	624.74	635.54	627.34	637.54	615.34	615.54	603.34	610.54	599.14	600.14	611.54	588.54	604.94	632.74	632.74
432.21	9951.87	1040.82	656.72	673.92	641.72	642.72	631.92	675.92	639.92	648.12	657.12	585.52	626.12	644.52	637.92	643.32	608.12	633.32	633.32
432.483	10196.8	1020.82	670.027	658.36	639.96	639.56	642.36	659.96	676.96	631.36	657.76	658.76	632.96	646.36	645.76	633.56	618.36	663.16	663.16
432.755	10401.5	1028.12	695.88	671.08	669.08	635.68	670.48	663.88	705.88	679.08	659.08	669.68	645.68	683.48	663.88	645.08	650.48	659.28	659.28
433.028	10577.4	1033.68	706.623	682.09	701.29	675.99	700.89	694.69	686.69	674.69	672.49	680.09	631.89	680.29	673.89	675.09	686.29	652.29	652.29
433.301	10740.1	1033.7	707.06	708.06	722.66	731.06	723.26	693.06	708.46	694.66	684.66	684.06	687.86	677.46	721.66	702.66	717.26	700.06	700.06
433.573	10872.2	1026.82	726.3	703.7	712.1	703.9	724.1	715.3	716.3	706.3	705.3	705.9	712.1	685.1	684.1	703.3	701.3	715.1	715.1
433.846	11440.7	1036.34	762.427	734.56	742.56	766.16	751.16	764.36	727.76	730.96	759.96	727.56	709.16	734.96	743.96	727.76	755.36	726.76	726.76
434.118	11313.3	1029.76	772.073	752.94	761.54	747.94	758.94	736.74	729.94	750.34	772.14	764.54	727.14	741.94	755.54	746.94	762.14	732.34	732.34
434.391	11405	1033.72	750.953	715.82	729.02	739.22	698.02	743.62	748.42	733.42	756.62	733.02	717.82	728.82	723.22	724.62	760.82	732.62	732.62
434.663	11730.8	1040.61	792.88	759.68	781.08	746.28	774.48	755.48	774.08	799.68	764.08	741.88	759.88	803.08	754.68	764.08	779.28	734.28	734.28
434.936	12043.1	1029.52	805.907	787.44	765.64	791.24	770.24	769.84	786.24	774.44	802.04	812.64	826.84	785.44	771.64	785.04	766.04	756.64	756.64
435.208	12122.4	1036.4	798.273	813.74	805.94	847.54	795.54	807.74	809.94	795.34	785.34	804.54	760.14	780.14	801.34	766.74	798.74	781.74	781.74
435.48	12474.5	1038.94	837.12	828.72	808.12	823.12	846.52	786.12	855.32	804.32	810.32	834.12	802.52	789.52	862.12	823.52	808.92	838.32	838.32
435.752	12544.1	1034.88	830.027	852.56	830.36	825.96	840.96	820.16	847.56	839.36	801.16	838.16	825.56	830.16	817.76	838.56	821.36	823.16	823.16
436.024	12632.3	1038.82	878.9	839.3	846.9	847.9	849.9	862.3	878.3	843.5	840.3	843.1	849.9	884.5	827.1	834.1	872.3	839.1	839.1
436.296	12978.7	1033.98	886.413	877.48	870.68	858.48	873.28	884.48	887.88	874.08	860.88	892.88	865.48	837.88	868.08	867.08	865.68	852.88	852.88
436.568	13299.7	1034.24	917.167	898.9	873.1	901.9	923.7	891.9	872.5	858.9	872.9	898.1	887.7	927.5	890.9	892.1	902.3	909.3	909.3
436.84	13344.7	1035.24	936.567	922.7	906.3	890.9	870.3	893.3	880.7	916.5	897.1	889.9	902.1	916.5	913.7	879.3	882.1	872.1	872.1
437.112	13711.1	1045.22	959.907	950.84	938.64	919.24	937.04	939.84	918.64	939.04	932.04	910.44	949.64	939.84	941.24	903.44	912.64	907.04	907.04
437.384	14138	1037.54	967.74	949.54	974.34	954.94	943.14	946.34	945.34	950.94	976.14	966.34	961.54	945.14	973.74	936.14	976.14	918.54	918.54
437.656	14124.4	1032.86	978.56	935.36	948.36	924.96	935.96	930.56	965.96	990.16	945.96	956.16	959.36	967.56	947.36	953.36	938.36	946.16	946.16
437.928	14231.4	1033.74	978.627	929.16	977.56	926.76	979.96	959.96	980.96	944.76	946.36	952.76	939.56	964.16	939.16	946.16	921.56	952.56	952.56
438.199	14726.1	1037.18	1035.85	996.92	1016.12	1005.32	995.52	1017.12	977.32	972.52	971.52	952.52	1004.72	996.92	1016.52	999.32	970.32	1005.32	1005.32
438.471	15112.5	1031.54	1042.71	1046.58	1029.58	1033.58	1024.78	978.58	1058.18	1006.58	1039.18	997.78	1052.58	1020.58	993.58	1010.58	1012.98	991.58	991.58
438.743	15031.8	1035.66	1045.24	1026.04	1043.44	1045.44	1025.44	1017.24	1037.04	1037.84	1007.64	1013.24	971.64	1022.64	1017.44	1004.44	1057.84	1011.64	1011.64
439.014	15520.4	1028.82	1078.29	1060.62	1052.62	1033.82	1104.62	1066.62	1073.62	1076.82	1029.62	1047.02	1028.62	1023.02	1025.22	1066.82	1053.62	1037.62	1037.62
439.286	15873.8	1037.34	1080.73	1089.6	1064.4	1076.8	1033.2	1043.8	1048.8	1077.4	1064	1035.6	1074.8	1052.2	1048.6	1011.2	1050.2	1047.2	1047.2
439.557	15808.6	1038.04	1088.21	1098.74	1061.14	1093.14	1107.74	1071.74	1065.54	1085.34	1076.94	1072.54	1053.34	1081.74	1055.74	1047.34	1071.94	1048.74	1048.74
439.828	16376.8	1033.88	1154.11	1111.38	1089.18	1139.38	1104.38	1109.98	1126.58	1122.58	1122.18	1120.18	1109.58	1101.58	1102.58	1122.38	1093.98	1121.98	1121.98
440.1	16777.5	1037.58	1165.71	1155.18	1141.38	1140.18	1171.98	1174.58	1138.78	1150.38	1140.78	1170.78	1094.18	1117.58	1127.18	1121.98	1156.38	1152.38	1152.38
440.371	16694.5	1038.48	1172.57	1142.24	1146.04	1169.84	1170.04	1157.04	1131.24	1146.24	1163.24	1147.84	1120.44	1157.44	1128.64	1144.84	1084.24	1106.24	1106.24
440.642	17201.6	1043.28	1205.89	1206.56	1223.36	1196.76	1154.56	1195.36	1152.36	1187.16	1165.56	1194.56	1160.36	1190.76	1164.36	1184.16	1174.56	1135.16	1135.16
440.913	17586.5	1035.4	1236.93	1242.66	1216.26	1175.66	1226.66	1208.06	1192.46	1233.86	1228.06	1214.66	1165.26	1213.46	1233.66	1199.66	1205.46	1172.26	1172.26
441.184	17794	1034.84	1260.43	1229.16	1273.16	1242.36	1232.56	1275.56	1213.16	1196.36	1195.16	1242.56	1194.16	1192.36	1232.76	1209.76	1216.96	1204.36	1204.36
441.456	18180.6	1029.14	1293.58	1264.38	1262.78	1272.18	1251.98	1245.98	1246.38	1234.98	1259.18	1257.58	1263.98	1255.18	1233.18	1216.98	1267.38	1230.78	1230.78
441.727	18413.2	1030.1	1283.21	1291.54	1285.74	1272.14	1252.54	1267.94	1254.34	1263.74	1256.74	1276.34	1228.54	1254.94	1233.74	1211.14	1246.74	1290.74	1290.74
441.998	18848.1	1026.26	1328.22	1288.69	1289.69	1309.29	1348.89	1287.89	1311.09	1321.89	1316.29	1274.29	1251.49	1295.89	1272.09	1278.89	1272.69	1302.29	1302.29
442.268	19392.6	1034.42	1369.21	1368.14	1368.94	1354.94	1336.34	1346.14	1383.74	1335.94	1352.74	1335.74	1388.94	1300.54	1332.94	1362.34	1319.74	1300.94	1300.94
442.539	19370.6	1036.98	1384.67	1345.8	1353	1372	1345.2	1358.2	1348.8	1352	1334	1310.4	1370.6	1302.2	1307.6	1326.8	1321	1324.6	1324.6
442.81	20290	1029.4	1437.45	1437.72	1407.32	1395.12	1424.92	1391.32	1404.52	1368.12	1388.12	1395.32	1372.12	1364.12	1397.92	1422.52	1338.72	1392.12	1392.12
443.081	20151.4	1035.55	1457.97	1431.84	1439.84	1413.24	1369.24	1411.44	1406.44	1390.64	1382.44	1420.64	1376.04	1398.64	1386.84	1406.84	1411.84	1404.44	1404.44
443.352	20682	1037.36	1486.77	1424.84	1460.04	1452.04	1452.64	1444.84	1420.04	1428.44	1445.84	1445.64	1425.04	1399.64	1400.04	1447.24	1402.84	1428.04	1428.04
443.622	20915.1	1040.96	1497.59	1463.86	1463.26	1497.66	1463.66	1509.06	1461.46	1439.66	1425.06	1436.66	1460.06	1418.66	1431.46	1405.06	1450.26	1456.26	1456.26
443.893	21308.2	1032.2	1540.41	1511.74	1505.14	1523.14	1513.34	1505.54	1478.14	1486.54	1489.74	1494.54	1519.14	1513.94	1442.14	1503.54	1455.34	1498.34	1498.34
444.163	21839.2	1039.64	1579.57	1538.84	1560.64	1585.24	1510.84	1534.24	1532.44	1550.04	1546.24	1505.44	1545.64	1501.64	1519.24	1511.84	1558.64	1530.04	1530.04
444.434	22149.1	1039.24	1597.49	1579.56	1570.56	1558.76	1564.96	1603.16	1551.36	1545.56	1596.76	1533.76	1566.36	1528.16	1544.16	1535.56	1505.56	1583.76	1583.76
444.704	22429.9	1039.28	1622.41	1615.94	1593.74	1574.94	1582.94	1562.74	1596.34	1574.54	1586.74	1558.54	1578.14	1577.14	1569.34	1569.94	1574.34	1616.54	1616.54
444.975	22919.3	1045.32	1671.54	1637.94	1623.54	1642.34	1610.14	1670.34	1638.14	1598.74	1629.34	1615.74	1629.34	1591.74	1587.34	1633.34	1574.74	1614.34	1614.34
445.245	22974.9	1035.98	1679.9	1649.5	1635.1	1638.5	1640.1	1643.5	1651.7	1620.3	1622.1	1667.5	1591.1	1624.7	1625.7	1624.7	1607.1	1618.5	1618.5
445.515	24052.1	1035.22	1763.77	1747.04	1713.84	1698.24	1727.04	1744.04	1717.24	1734.44	1699.64	1699.44	1684.64	1678.44	1663.24	1697.84	1666.24	1654.64	1654.64
445.786	23975.5	1038.96	1749.16	1739.56	1702.56	1679.96	1702.16	1746.16	1702.16	1727.36	1700.76	1677.16	1673.76	1697.36	1687.56	1705.76	1682.96	1661.36	1661.36
446.056	24639.7	1041.24	1790.36	1774.76	1749.36	1782.16	1770.16	1755.96	1764.76	1751.96	1758.56	1781.36	1698.36	1731.96	1695.96	1728.36	1715.96	1721.56	1721.56
446.326	24847.5	1035.5	1827.12	1744.12	1799.52	1808.12	1786.32	1780.32	1745.32	1785.72	1803.32	1739.52	1793.72	1776.32	1743.12	1778.12	1749.12	1748.72	1748.72
446.596	25224.9	1040.26	1835.33	1816.06	1849.26	1812.86	1808.66	1812.66	1806.86	1799.26	1815.66	1733.66	1795.46	1774.26	1789.26	1783.26	1757.66	1807.86	1807.86
446.866	25501.2	1030.36	1857.42	1846.82	1820.62	1816.62	1834.02	1843.62	1795.42	1819.22	1786.42	1813.22	1808.62	1799.42	1812.82	1802.22	1788.82	1797.22	1797.22
447.136	25743.3	1041.48	1893.01	1856.34	1902.94	1841.14	1879.74	1826.14	1869.54	1871.94	1840.94	1843.14	1843.14	1807.54	1850.54	1787.14	1849.54	1825.14	1825.14
447.406	25906	1042.4	1916.86	1924.86	1929.86	1879.26	1914.86	1863.46	1866.26	1844.46	1870.46	1838.46	1860.06	1874.06	1847.86	1843.26	1839.66	1895.26	1895.26
447.676	26311.4	1034.28	1971.8	1953.4	1923.6	1932.2	1947.4	1909.8	1883.2	1933	1905.6	1918.8	1875.6	1887.8	1909.4	1890.6	1891	1853	1853
447.946	26827.6	1038.64	2001.13	1980.36	1973.16	1950.56	1966.36	1950.96	1920.56	1906.96	1934.76	1916.76	1961.96	1942.16	1928.76	1939.36	1926.16	1878.16	1878.16
448.215	26646.9	1030.72	1995.03	1996.3	1985.7	1946.3	1991.5	1914.5	1963.5	1940.7	1920.7	1930.1	1950.9	1911.7	1953.7	1916.5	1919.7	1929.3	1929.3
448.485	26791.3	1042.1	2006.69	1972.42	1979.22	1970.02	1981.42	1917.62	1956.02	1955.62	1959.62	1906.82	1975.82	1926.02	1946.82	1920.82	1951.62	1948.22	1948.22
448.755	27135.4	1034.46	2064.27	2030.4	2010	1988.8	1959.8	1988	1987	1988.2	1997.2	1997.6	2003.4	1973.8	2032.8	1985	1943	1964.4	1964.4
449.024	27508	1042.52	2078.79	2052.46	2045.26	2027.06	2015.66	2010.26	2041.26	1984.86	1995.26	1988.06	1967.26	2025.26	2009.46	2027.86	2006.86	1972.86	1972.86
449.294	27269.9	1027.66	2092.63	2042.1	2028.3	2031.5	2033.3	2013.7	2018.9	2029.1	2006.3	2039.7	2023.3	2044.7	2024.9	2031.7	1999.3	1967.9	1967.9
449.563	27330.9	1035.06	2096.51	2058.44	2015.64	2088.84	2074.44	2032.84	2030.04	2020.44	2018.64	2022.04	2022.84	2032.44	1996.84	2001.64	2001.04	1994.64	1994.64
449.833	27548.3	1041.44	2121.53	2137.2	2099.2	2098.4	2038	2093	2044.4	2057.8	2079.6	2082.6	2075.4	2038.2	2077.8	2052	2014.6	2032.4	2032.4
450.102	27971.1	1032.7	2182.67	2134.14	2129.34	2157.14	2132.54	2120.34	2073.14	2112.94	2085.14	2120.74	2060.54	2086.94	2080.74	2109.54	2063.54	2097.54	2097.54
450.372	27963.5	1034.42	2194.22	2163.62	2122.82	2159.02	2141.02	2131.02	2122.62	2131.02	2122.42	2124.82	2107.22	2054.42	2096.82	2125.82	2075.42	2093.82	2093.82
450.641	27496.9	1026.94	2160.15	2134.82	2131.22	2076.02	2078.02	2098.22	2071.02	2079.62	2135.62	2049.22	2050.52	2059.42	2091.82	2091.82	2068.42	2053.02	2053.02
450.91	27003.1	1038.32	2123.7	2117.5	2101.3	2117.1	2097.3	2094.3	2108.1	2051.7	2064.9	2039.5	2070.7	2069.3	2054.7	2055.1	2038.1	2053.3	2053.3
451.179	26860.6	1031.12	2155.23	2138.3	2105.9	2034.1	2070.7	2107.7	2085.1	2062.3	2076.9	2085.3	2076.1	2067.5	2044.1	2088.7	2063.5	2022.1	2022.1
451.448	27428.9	1039.42	2199.87	2178.94	2140.94	2145.34	2132.74	2136.94	2109.34	2106.94	2111.34	2140.54	2106.54	2107.54	2146.34	2152.34	2085.14	2114.74	2114.74
451.717	26384.5	1032.04	2147.55	2117.48	2111.48	2107.68	2091.08	2095.48	2059.48	2030.48	2058.08	2068.08	2036.48	2064.88	2071.68	2084.48	2015.88	2042.28	2042.28
451.986	26978.5	1037.78	2185.41	2151.54	2129.74	2161.14	2137.94	2160.34	2110.34	2139.54	2142.14	2114.14	2099.14	2148.14	2092.34	2100.94	2135.34	2131.34	2131.34
452.255	26369.4	1032.66	2171.87	2148.87	2120.47	2127.87	2128.87	2117.27	2107.27	2078.87	2077.87	2118.27	2085.27	2041.87	2107.07	2085.27	2083.27	2058.47	2058.47
452.524	25906.6	1031	2148.56	2115.76	2084.16	2096.76	2099.76	2083.16	2073.96	2092.56	2051.36	2083.76	2035.16	2046.16	2072.56	2116.56	2064.56	2014.36	2014.36
452.793	26166	1038.76	2175.71	2152.18	2124.38	2134.58	2096.18	2113.98	2147.58	2105.58	2136.38	2091.78	2113.18	2078.78	2114.58	2111.38	2085.78	2041.58	2041.58
453.062	25685.7	1036.28	2154.55	2106.02	2094.82	2103.02	2108.82	2092.62	2091.02	2105.22	2056.82	2026.02	2065.02	2037.22	2075.02	2075.02	2064.22	2048.42	2048.42
453.331	25412.9	1031.3	2149.47	2128	2103.8	2101.6	2098.6	2090.4	2055	2081	2138	2021.4	2049.8	2049	2050	2053.8	2021.8	2012.2	2012.2
453.6	24989.8	1032.6	2135.41	2119.88	2077.28	2081.08	2083.48	2031.68	2020.88	2081.88	2062.48	2047.28	2037.08	2071.68	2043.68	2014.48	2032.08	2044.28	2044.28
453.868	24542.7	1039.68	2078.81	2079.68	2069.68	2075.88	2048.68	2066.48	2061.88	2025.08	2036.28	2024.28	2027.08	1996.08	2012.88	2050.08	2051.68	2008.08	2008.08
454.137	24320.4	1040.24	2130.23	2069.9	2033.9	2061.3	2024.3	2039.9	2065.5	2042.7	2019.3	2072.1	2059.7	1969.9	2007.9	1997.3	2005.1	2026.9	2026.9
454.405	23810.9	1029.12	2066.53	2049.66	2035.06	2027.66	2062.06	1999.86	2011.06	1973.66	1991.86	1981.86	2002.06	1973.46	1969.46	1976.66	1976.26	1974.26	1974.26
454.674	23436.6	1035.92	2056.02	2007.22	2035.62	1970.62	1986.42	1947.62	2013.22	1994.02	1987.62	1935.02	1939.02	1953.02	1951.82	1967.62	1951.82	1931.42	1931.42
454.942	23098.7	1041.48	2023.87	1984.4	1985	1981.6	1986.2	1968.2	2001.2	1978.8	1968.2	1968.8	1908.8	1973.8	1972.6	1949.6	1937.4	1913.4	1913.4
455.211	22795.9	1033.56	1984.87	1965.74	1991.54	1950.34	1978.54	1972.14	1927.74	1924.94	1915.74	1966.14	1972.54	1961.14	1884.34	1915.74	1939.34	1883.54	1883.54
455.479	21681.6	1038.36	1940.57	1906.44	1925.84	1901.84	1891.84	1846.44	1847.64	1859.04	1866.24	1881.64	1816.04	1863.24	1863.44	1846.04	1861.24	1846.84	1846.84
455.747	21813.5	1032.64	1952.43	1944.56	1908.56	1941.36	1893.96	1860.76	1891.96	1882.96	1881.16	1876.96	1814.36	1891.16	1873.16	1841.96	1843.36	1848.06	1848.06
456.016	21753.6	1040.75	1951.93	1946.2	1919.2	1904.6	1932	1911.8	1901	1881.2	1885.6	1865.6	1913	1896.6	1884.2	1904.6	1847.2	1843	1843
456.284	20947.2	1039.64	1918.69	1831.22	1859.42	1853.42	1840.42	1843.02	1856.82	1827.82	1823.62	1816.82	1795.82	1808.22	1855.62	1839.22	1856.22	1840.82	1840.82
456.552	20825.3	1027.8	1903.53	1876.6	1876.8	1856.6	1851.6	1857	1856.2	1856.4	1857.2	1840	1840	1845.4	1816.8	1828.4	1811.4	1833	1833
456.82	20055.3	1035.28	1858	1818.2	1799.6	1816.2	1754.2	1786	1791	1767.8	1793.6	1772.4	1750	1747.2	1759.6	1785.8	1770.6	1779.2	1779.2
457.088	19285	1027.92	1795.73	1750.46	1720.86	1735.86	1717.26	1750.46	1735.26	1742.26	1718.46	1706.66	1737.66	1711.66	1711.06	1700.66	1716.26	1726.46	1726.46
457.356	19201.7	1034.32	1800.92	1727.72	1706.52	1724.52	1737.92	1711.32	1736.92	1721.32	1709.12	1698.32	1716.72	1685.12	1709.32	1722.72	1728.92	1677.72	1677.72
457.624	18906.7	1038.14	1783.65	1760.85	1720.45	1740.65	1746.45	1732.45	1714.45	1702.85	1699.25	1698.65	1738.85	1652.45	1664.65	1675.25	1685.85	1690.85	1690.85
457.892	18587.7	1039.54	1751.24	1703.24	1736.64	1690.04	1700.24	1709.04	1673.64	1651.64	1634.04	1662.24	1648.64	1678.24	1652.44	1682.64	1692.04	1647.84	1647.84
458.16	17760.1	1034.76	1678.79	1655.66	1643.06	1670.66	1643.46	1617.66	1623.26	1625.46	1608.06	1633.46	1592.46	1618.66	1610.66	1601.66	1594.86	1588.26	1588.26
458.428	17757.5	1031.9	1686.46	1644.46	1655.26	1641.66	1609.06	1628.46	1605.86	1598.86	1623.66	1615.46	1613.06	1645.06	1626.26	1588.86	1586.06	1605.46	1605.46
458.695	17149.1	1039.55	1655.5	1610.9	1591.3	1598.3	1578.1	1582.9	1598.5	1594.7	1560.7	1560.1	1584.1	1545.1	1585.5	1551.3	1575.3	1556.7	1556.7
458.963	17315.4	1033.26	1638.82	1628.22	1618.62	1617.62	1636.62	1577.62	1606.02	1570.22	1582.62	1591.82	1625.22	1591.82	1600.22	1572.62	1561.82	1597.42	1597.42
459.231	16807.7	1031.42	1616.83	1575.16	1578.16	1608.16	1566.16	1552.76	1547.16	1535.56	1547.76	1556.56	1531.96	1551.16	1521.16	1561.16	1520.76	1546.96	1546.96
459.498	16268.3	1039.78	1592.44	1572.34	1551.74	1531.54	1520.54	1510.54	1496.54	1516.94	1488.14	1494.74	1534.74	1515.94	1498.34	1491.54	1501.54	1484.14	1484.14
459.766	16266.5	1034.24	1584.11	1539.24	1547.04	1549.24	1538.24	1504.84	1532.84	1509.24	1535.04	1531.44	1509.24	1536.04	1481.84	1503.04	1516.84	1518.04	1518.04
460.033	16057	1034.68	1558.08	1552.48	1520.48	1517.88	1513.68	1544.08	1560.28	1500.88	1491.48	1506.28	1451.28	1538.28	1481.28	1533.68	1478.48	1510.28	1510.28
460.301	15771.6	1034.9	1551.23	1527.5	1473.1	1482.5	1505.9	1526.3	1500.1	1492.3	1478.1	1472.5	1479.9	1450.5	1461.3	1458.3	1470.9	1486.5	1486.5
460.568	15472.1	1037.24	1516.71	1476.58	1485.98	1504.58	1478.38	1477.58	1484.98	1453.78	1435.98	1459.38	1402.78	1470.58	1472.98	1423.98	1446.98	1417.58	1417.58
460.835	15294.5	1040.94	1529.72	1495.32	1472.32	1456.12	1483.12	1456.52	1482.12	1473.12	1467.92	1452.12	1465.32	1438.72	1483.92	1412.32	1469.92	1454.52	1454.52
461.103	15218.3	1035.42	1535.62	1479.22	1456.02	1452.62	1462.52	1476.82	1490.82	1439.42	1456.62	1414.42	1450.22	1456.22	1457.02	1420.42	1405.22	1439.82	1439.82
461.37	14572.1	1032.84	1439.07	1439.74	1386.74	1395.94	1412.34	1399.74	1370.54	1368.34	1380.54	1397.14	1381.54	1379.74	1379.14	1361.74	1377.14	1341.54	1341.54
461.637	14550.4	1031.6	1454.57	1406.97	1401.37	1400.17	1384.57	1378.17	1366.97	1366.57	1400.77	1371.37	1425.37	1376.37	1386.37	1369.77	1374.57	1359.57	1359.57
461.904	14394.5	1041.1	1455.29	1428.06	1396.46	1399.46	1380.26	1395.66	1377.86	1371.06	1381.26	1385.86	1357.46	1394.66	1341.46	1343.26	1394.06	1365.86	1365.86
462.171	14249.6	1030.42	1441.27	1387.54	1363.34	1361.74	1403.94	1365.54	1374.54	1339.34	1393.34	1396.94	1375.54	1358.14	1316.34	1353.74	1358.74	1363.94	1363.94
462.438	13937.9	1029.88	1429.78	1364.38	1375.98	1362.38	1374.78	1339.78	1389.58	1334.78	1357.78	1337.58	1357.78	1317.58	1321.58	1323.78	1315.78	1324.38	1324.38
462.705	13985.5	1044.62	1417.81	1399.68	1404.68	1368.48	1343.48	1330.28	1350.88	1361.08	1326.88	1351.08	1335.08	1356.48	1340.08	1327.88	1332.68	1354.88	1354.88
462.972	13548.7	1047.3	1396.43	1343.3	1354.3	1365.9	1298.3	1317.1	1326.3	1330.5	1317.5	1283.5	1292.5	1330.5	1294.5	1271.3	1291.1	1315.9	1315.9
463.239	13694.1	1030.02	1436.65	1407.38	1374.78	1384.38	1351.98	1338.18	1310.78	1350.98	1359.98	1324.78	1313.18	1322.38	1313.58	1334.38	1301.18	1306.58	1306.58
463.505	13198.2	1032.34	1379.85	1313.98	1288.38	1304.58	1306.58	1317.98	1299.58	1291.38	1302.98	1280.18	1305.78	1284.98	1296.18	1261.58	1282.78	1247.18	1247.18
463.772	13333.8	1030.42	1373.32	1351.92	1329.12	1329.52	1333.92	1307.32	1310.12	1306.72	1324.12	1308.72	1294.52	1284.12	1269.52	1284.52	1265.52	1293.12	1293.12
464.039	13033.5	1039.28	1362.71	1348.38	1288.78	1332.98	1305.58	1303.78	1308.58	1326.38	1287.78	1306.18	1265.38	1281.78	1262.78	1282.98	1226.58	1293.58	1293.58
464.306	12955.3	1036.53	1372.93	1347.86	1303.46	1313.46	1317.66	1275.66	1300.86	1311.26	1323.26	1290.86	1281.06	1294.86	1284.46	1270.46	1272.66	1289.26	1289.26
464.572	12996.8	1030.64	1369.58	1341.38	1321.78	1284.98	1318.38	1318.78	1302.18	1335.58	1328.78	1279.98	1279.78	1294.18	1285.58	1272.78	1262.78	1243.78	1243.78
464.839	12916.5	1042.46	1363.33	1321	1314.8	1276.8	1319.4	1306	1312.4	1260.2	1284.6	1309.4	1273.4	1266.2	1256.4	1246	1306.2	1263.6	1263.6
465.105	12735.1	1032.82	1367.23	1320.1	1278.1	1267.9	1330.1	1322.3	1293.1	1286.5	1262.3	1297.9	1274.5	1246.9	1272.9	1249.9	1261.7	1281.9	1281.9
465.372	12546.4	1033.58	1336.05	1298.12	1326.12	1283.72	1297.32	1276.72	1267.52	1284.72	1303.32	1275.32	1235.52	1260.12	1233.32	1271.92	1274.32	1262.72	1262.72
465.638	12280.5	1038.32	1318.73	1278.26	1286.26	1286.46	1267.66	1293.86	1240.86	1289.26	1243.06	1220.06	1274.06	1256.26	1237.26	1234.06	1230.66	1225.66	1225.66
465.904	12254.1	1032.45	1349.21	1270.14	1265.14	1292.94	1287.94	1292.74	1270.94	1279.14	1244.94	1267.34	1257.14	1256.14	1254.14	1224.74	1223.14	1278.94	1278.94
466.17	12171.3	1031.6	1347.24	1290.24	1287.44	1280.44	1270.24	1273.84	1265.64	1256.04	1246.84	1270.64	1233.84	1208.04	1237.04	1250.24	1218.84	1226.24	1226.24
466.437	12023.6	1038.9	1329.42	1284.02	1301.02	1274.82	1264.62	1260.22	1246.82	1239.82	1261.02	1214.42	1246.02	1219.82	1204.42	1234.22	1233.22	1190.02	1190.02
466.703	11969.2	1036.62	1346.43	1302.96	1288.56	1275.76	1241.96	1248.96	1279.36	1210.76	1261.36	1258.56	1252.76	1238.36	1222.76	1225.96	1202.16	1220.56	1220.56
466.969	11916.4	1032.34	1339.25	1269.32	1236.92	1301.72	1266.12	1273.32	1262.32	1197.32	1219.52	1224.32	1227.92	1222.92	1226.72	1208.72	1242.12	1227.12	1227.12
467.235	11688.9	1045.8	1319.79	1263.26	1265.66	1260.46	1237.26	1278.06	1228.26	1240.46	1225.46	1265.06	1230.06	1200.66	1201.26	1188.26	1169.86	1186.06	1186.06
467.501	11871.9	1038.48	1342.15	1280.82	1262.82	1276.22	1269.22	1249.62	1225.62	1260.82	1228.62	1233.82	1238.22	1236.62	1228.82	1221.22	1226.02	1225.22	1225.22
467.767	11698.4	1032.78	1333.63	1287.9	1284	1289.1	1268.3	1265.1	1264.1	1235.9	1265.3	1223.1	1272.7	1221.7	1209.5	1231.1	1238.5	1222.1	1222.1
468.033	11582.6	1034.76	1327.13	1285.26	1271.06	1257.26	1252.86	1249.46	1244.86	1253.86	1279.46	1216.66	1234.86	1216.26	1217.86	1201.06	1221.46	1225.26	1225.26
468.299	11393.1	1041.2	1309.59	1234.46	1229.46	1258.66	1243.06	1250.26	1234.46	1234.66	1211.46	1212.26	1214.06	1180.26	1186.46	1219.66	1181.86	1240.06	1240.06
468.564	11450.2	1034.92	1323.83	1259.9	1235.5	1247.1	1226.3	1240.3	1242.1	1251.5	1207.9	1221.3	1222.5	1176.1	1208.1	1195.9	1205.9	1240.3	1240.3
468.83	11283.4	1032.84	1322.03	1266.36	1262.16	1241.96	1232.56	1252.56	1211.96	1229.36	1217.56	1195.76	1196.76	1188.16	1205.76	1190.76	1203.76	1180.36	1180.36
469.096	11187.6	1037.04	1301.86	1266.66	1221.86	1238.06	1229.66	1234.86	1181.26	1219.46	1190.86	1187.06	1208.06	1177.46	1179.26	1194.66	1187.66	1187.46	1187.46
469.362	11150.6	1031.08	1319.04	1277.44	1256.04	1251.54	1241.64	1222.24	1217.84	1210.84	1200.44	1196.04	1220.44	1201.04	1183.24	1221.64	1195.04	1198.44	1198.44
469.627	11077.8	1036.58	1303.2	1256.6	1243.2	1269.8	1209.2	1235	1234.8	1211	1210.8	1210	1195.4	1184.4	1179	1200.8	1220.6	1186.6	1186.6
469.893	11116.3	1036.5	1310.32	1247.32	1272.92	1287.72	1225.52	1225.92	1241.12	1217.32	1243.32	1223.92	1176.12	1173.12	1200.72	1173.92	1188.32	1190.52	1190.52
470.158	11116.1	1035.26	1316.21	1285.94	1235.14	1275.14	1243.74	1228.14	1212.34	1275.74	1219.34	1204.54	1190.54	1236.54	1227.94	1191.94	1193.34	1229.74	1229.74
470.424	10895.8	1074.52	1298.78	1254.78	1210.98	1209.58	1230.78	1247.78	1190.98	1209.78	1197.58	1180.98	1180.78	1149.38	1183.38	1186.78	1172.18	1192.98	1192.98
470.689	10940.9	1036.02	1314.3	1277.3	1272.1	1246.3	1232.3	1225.1	1245.7	1190.9	1206.9	1193.7	1185.9	1196.7	1174.5	1216.3	1187.9	1165.9	1165.9
470.954	10801.6	1029.28	1308.97	1269.64	1228.44	1246.44	1232.44	1229.24	1230.04	1211.04	1211.64	1211.24	1166.44	1227.44	1200.84	1174.44	1196.24	1172.04	1172.04
471.22	10696	1034.36	1290.85	1252.58	1210.38	1232.38	1200.98	1204.98	1249.38	1223.78	1206.38	1181.58	1187.98	1175.38	1175.38	1157.38	1191.18	1162.18	1162.18
471.485	10713.5	1049.42	1303.54	1261.94	1269.94	1201.14	1207.54	1223.74	1232.14	1198.14	1222.34	1230.74	1166.94	1166.14	1217.94	1169.94	1181.94	1185.14	1185.14
471.75	10715.2	1041.66	1315.31	1248.38	1270.18	1263.58	1245.38	1188.18	1232.18	1208.58	1215.18	1189.18	1189.98	1172.38	1206.18	1187.18	1200.38	1168.98	1168.98
472.015	10608.6	1028.14	1292.88	1261.88	1217.28	1220.28	1255.08	1212.28	1230.88	1209.28	1210.28	1221.28	1180.28	1195.68	1194.68	1201.48	1170.08	1193.88	1193.88
472.28	10616.4	1032.26	1333.97	1279.1	1262.7	1223.9	1240.5	1243.5	1207.5	1226.3	1242.5	1184.5	1187.7	1206.5	1220.5	1213.9	1201.1	1199.5	1199.5
472.545	10487.6	1030.36	1336.27	1268	1261.8	1241.2	1215.8	1203.2	1211.6	1219.8	1193.6	1197	1188.2	1189.8	1187.4	1192.4	1154.8	1193.8	1193.8
472.81	10429.2	1029.66	1295.96	1223.16	1229.36	1223.96	1220.76	1205.16	1187.96	1196.76	1206.76	1201.36	1189.16	1191.36	1171.76	1171.56	1148.96	1197.96	1197.96
473.075	10434.3	1038.8	1325.02	1269.82	1280.62	1266.02	1244.42	1233.42	1234.22	1209.02	1230.42	1222.82	1236.42	1232.62	1176.22	1165.22	1188.42	1180.62	1180.62
473.34	10375.5	1028.54	1289.88	1270.08	1255.48	1227.68	1215.88	1196.08	1217.08	1209.88	1211.28	1219.08	1183.28	1193.88	1176.28	1181.28	1193.28	1192.88	1192.88
473.605	10408.3	1031.74	1324.49	1268.96	1267.36	1259.56	1238.56	1264.56	1254.56	1203.16	1210.76	1221.96	1198.96	1209.56	1199.96	1193.76	1166.36	1191.76	1191.76
473.869	10335.1	1036.86	1340.05	1269.72	1257.72	1214.92	1256.32	1237.12	1251.32	1203.72	1244.12	1206.92	1226.52	1218.92	1211.92	1210.32	1200.92	1172.72	1172.72
474.134	10361.3	1039.58	1338.53	1247.66	1298.26	1227.06	1240.06	1220.26	1245.66	1211.66	1230.46	1228.86	1224.66	1247.06	1200.86	1209.26	1170.66	1213.46	1213.46
474.399	10292	1044.6	1330.43	1276.36	1272.76	1204.76	1263.56	1231.56	1225.96	1257.56	1227.36	1212.36	1208.56	1232.76	1211.16	1199.56	1191.36	1193.96	1193.96
474.663	10273.1	1043.12	1318.4	1242.6	1268.2	1222.6	1251.6	1224.4	1207.8	1247	1258.4	1240.2	1210.8	1214.8	1226.4	1197.4	1212	1211.6	1211.6
474.928	10243.8	1035.62	1346.44	1278.04	1293.44	1255.84	1240.04	1237.44	1234.84	1227.44	1245.64	1229.84	1243.84	1196.84	1206.04	1242.04	1206.84	1181.84	1181.84
475.192	10164.9	1033.34	1348.27	1304.14	1283.34	1273.54	1209.14	1274.34	1260.94	1225.14	1219.94	1237.14	1203.54	1228.14	1213.94	1194.14	1175.94	1204.34	1204.34
475.457	10254.6	1033.26	1359.32	1300.52	1281.52	1285.32	1223.92	1246.72	1245.52	1282.72	1250.12	1236.32	1204.92	1227.32	1213.52	1189.92	1232.12	1262.72	1262.72
475.721	10234.6	1036.14	1350.91	1306.44	1264.64	1265.24	1231.24	1246.44	1274.24	1282.44	1273.84	1270.84	1207.84	1237.04	1204.84	1208.04	1251.44	1225.64	1225.64
475.985	10273.7	1033.02	1355.26	1336.46	1291.26	1282.66	1256.86	1297.26	1240.06	1292.46	1255.66	1223.86	1258.46	1245.06	1234.86	1214.66	1251.26	1262.46	1262.46
476.25	10338.7	1038.88	1372.65	1300.32	1290.32	1289.92	1285.72	1306.32	1286.12	1241.72	1262.52	1273.12	1228.12	1239.12	1235.32	1207.92	1236.12	1242.72	1242.72
476.514	10362.4	1029.02	1384.48	1321.88	1329.08	1294.88	1295.08	1279.88	1261.68	1272.08	1226.48	1309.28	1243.68	1263.08	1269.28	1244.88	1251.88	1263.48	1263.48
476.778	10455.6	1036.24	1390.59	1349.46	1322.86	1311.86	1312.26	1272.06	1274.06	1272.06	1293.26	1299.86	1224.26	1259.06	1250.26	1271.46	1287.46	1268.66	1268.66
477.042	10480.3	1033.2	1400.63	1338.7	1348.7	1322.3	1324.3	1289.7	1298.5	1325.7	1287.5	1277.7	1276.7	1267.1	1292.3	1245.1	1274.3	1243.1	1243.1
477.306	10628.3	1036.92	1425.45	1377.98	1342.38	1374.78	1342.78	1318.98	1326.38	1333.38	1317.78	1310.78	1300.78	1332.58	1287.78	1278.78	1304.98	1292.58	1292.58
477.57	10558.1	1038.94	1449.29	1358.22	1361.42	1320.62	1377.62	1341.02	1296.42	1284.42	1308.02	1323.82	1310.22	1295.22	1301.22	1315.82	1276.82	1294.62	1294.62
477.834	10622	1033.1	1453.88	1359.88	1375.48	1358.08	1335.88	1321.68	1315.08	1319.88	1291.88	1335.08	1325.68	1283.08	1277.48	1325.88	1292.68	1307.68	1307.68
478.098	10753.8	1029.2	1458.39	1391.72	1431.52	1361.32	1362.52	1358.12	1338.52	1320.32	1341.72	1306.52	1348.72	1327.12	1313.72	1319.52	1274.52	1314.92	1314.92
478.362	10730.5	1037.18	1482.41	1409.14	1379.54	1360.54	1377.94	1370.74	1341.14	1369.34	1334.94	1351.14	1313.34	1341.34	1304.94	1350.94	1297.14	1299.34	1299.34
478.626	11036.7	1034.4	1547.57	1461.5	1438.5	1427.3	1401.1	1407.5	1428.1	1409.5	1425.3	1408.7	1379.7	1381.5	1358.1	1366.9	1368.9	1336.1	1336.1
478.89	10958.1	1029.24	1519.89	1442.02	1421.22	1450.82	1412.82	1395.62	1381.62	1369.62	1354.42	1390.22	1385.62	1354.42	1361.82	1328.02	1348.62	1320.22	1320.22
479.153	11088.4	1029.82	1542.82	1473.62	1495.22	1482.02	1453.02	1426.82	1428.82	1425.22	1410.22	1387.82	1369.62	1383.82	1387.82	1350.82	1393.42	1363.82	1363.82
479.417	11133.5	1025.78	1551.04	1470.44	1454.44	1398.04	1437.84	1443.64	1411.24	1401.84	1444.04	1388.04	1333.64	1375.64	1372.24	1363.44	1352.44	1393.04	1393.04
479.681	11266.8	1019.56	1588.25	1517.32	1473.72	1483.92	1463.12	1429.52	1481.12	1456.12	1458.72	1423.92	1401.12	1402.92	1419.12	1385.52	1394.92	1398.92	1398.92
479.944	11401.1	1031.22	1600.66	1493.46	1497.86	1466.26	1488.46	1454.66	1476.26	1477.66	1452.46	1419.06	1401.26	1425.46	1457.66	1440.46	1411.46	1412.06	1412.06
480.208	11477.7	1045.8	1620.34	1534.94	1512.94	1521.74	1496.74	1517.74	1501.74	1466.54	1478.74	1455.94	1477.94	1458.34	1409.74	1443.94	1438.54	1416.94	1416.94
480.471	11500.4	1038.98	1631.63	1561.96	1539.16	1526.36	1474.16	1508.56	1488.56	1469.16	1473.36	1454.36	1463.76	1451.76	1455.36	1481.96	1496.76	1428.16	1428.16
480.734	11539.4	1045.68	1662.79	1569.52	1536.32	1522.12	1491.32	1514.12	1528.12	1487.52	1486.92	1486.72	1460.52	1465.32	1463.12	1438.52	1445.52	1496.12	1496.12
480.998	11647.5	1031.24	1667.37	1567.5	1532.3	1549.1	1540.9	1531.3	1500.7	1509.5	1517.3	1478.5	1459.1	1478.5	1464.9	1468.7	1452.5	1482.7	1482.7
481.261	11911.1	1037.38	1706.65	1626.52	1596.32	1570.92	1550.72	1559.72	1557.52	1520.52	1510.32	1503.72	1502.52	1543.52	1501.52	1486.32	1517.12	1534.12	1534.12
481.524	11923.7	1030.7	1734.31	1604.18	1599.98	1621.58	1604.18	1562.38	1590.98	1544.18	1548.58	1516.78	1485.78	1517.98	1513.58	1538.18	1506.18	1509.38	1509.38
481.787	11986.2	1035	1737.71	1644.64	1622.44	1594.64	1601.44	1602.64	1597.44	1587.64	1547.64	1569.04	1517.24	1552.64	1517.04	1533.44	1516.24	1520.64	1520.64
482.051	12246.3	1029.98	1786.39	1697.46	1647.86	1652.46	1638.66	1612.26	1628.66	1579.66	1616.86	1593.06	1593.86	1561.26	1567.46	1528.06	1574.26	1512.86	1512.86
482.314	12297	1033.06	1820.04	1676.04	1697.64	1695.04	1623.84	1647.24	1636.04	1635.84	1599.24	1598.84	1608.84	1581.64	1562.64	1575.24	1596.64	1549.64	1549.64
482.577	12406.5	1030.28	1863.69	1724.96	1724.36	1698.16	1695.56	1663.56	1652.56	1638.76	1664.36	1663.56	1623.76	1644.56	1627.36	1596.96	1595.36	1594.96	1594.96
482.84	12674.9	1025.85	1860.39	1787.86	1720.86	1743.46	1681.86	1720.26	1675.06	1683.86	1692.86	1691.46	1658.06	1658.86	1628.06	1628.06	1624.26	1596.26	1596.26
483.102	12501.2	1034.9	1886.24	1734.11	1722.91	1679.51	1695.51	1737.31	1683.91	1671.31	1655.31	1641.71	1616.71	1636.31	1680.71	1616.11	1647.91	1648.91	1648.91
483.365	12715.6	1036.84	1933.35	1774.42	1745.02	1731.22	1745.22	1766.22	1725.02	1744.02	1728.62	1730.62	1660.22	1658.62	1648.22	1651.02	1678.02	1660.82	1660.82
483.628	12905.9	1028.9	1932.25	1801.72	1791.32	1778.52	1778.72	1762.92	1722.32	1717.12	1666.32	1716.32	1668.92	1649.92	1698.92	1620.72	1699.12	1668.72	1668.72
483.891	12874	1035.46	1947.43	1816.56	1805.36	1801.16	1772.76	1740.16	1748.96	1732.76	1769.16	1691.36	1694.96	1708.36	1707.76	1714.36	1664.96	1677.96	1677.96
484.154	13190.5	1027.5	2005.93	1882.8	1836	1821.2	1798.2	1814.6	1787.6	1814.4	1774.4	1761.6	1718.8	1749.6	1741.6	1760	1712.4	1713.4	1713.4
484.416	13314.3	1020.64	2033.89	1919.42	1890.42	1835.22	1859.02	1846.62	1824.42	1852.42	1791.62	1791.42	1762.82	1778.82	1770.22	1779.02	1753.82	1754.62	1754.62
484.679	13283.3	1031.62	2034.12	1920.92	1896.32	1882.32	1856.52	1835.12	1851.12	1815.12	1837.12	1787.52	1746.12	1752.12	1764.32	1779.32	1746.72	1761.52	1761.52
484.941	13597.6	1043.76	2061.01	1945.88	1921.08	1916.08	1914.48	1934.88	1881.68	1858.48	1859.28	1832.28	1815.28	1809.08	1812.08	1814.48	1800.88	1809.08	1809.08
485.204	13614.5	1034.46	2131.88	1970.48	1955.48	1921.48	1926.28	1902.08	1915.08	1867.08	1869.28	1872.48	1832.08	1846.08	1836.08	1872.68	1832.48	1840.48	1840.48
485.466	13767.4	1040.62	2164.75	2027.22	1982.02	1969.82	1941.82	1949.62	1915.22	1910.02	1891.22	1892.22	1926.22	1877.82	1863.42	1889.82	1822.42	1867.82	1867.82
485.729	13726.4	1049.02	2153.33	2027.66	1971.46	1968.46	1941.66	1940.86	1951.46	1901.46	1899.06	1895.86	1881.06	1842.86	1863.86	1868.46	1853.46	1880.06	1880.06
485.991	13966	1010.64	2211.38	2052.98	2026.38	2013.58	1989.98	1999.98	1962.98	1925.78	1931.18	1983.18	1912.38	1925.18	1918.18	1916.78	1933.38	1856.78	1856.78
486.253	14150.9	1027.8	2250.07	2091.67	2069.77	2027.17	2054.57	1994.77	1976.97	1968.97	1987.17	1984.97	1963.57	1973.47	1956.77	1934.77	1932.77	1920.37	1920.37
486.516	14360.2	1043.02	2254.13	2121.46	2116.66	2054.26	2010.86	2076.46	1975.26	2008.46	2006.46	1991.86	1966.26	1974.46	1975.26	1941.46	1952.26	1954.46	1954.46
486.778	14360.1	1040.48	2305.99	2140.06	2111.06	2073.06	2080.06	2025.86	2055.66	2007.46	2035.86	1951.06	1990.86	2003.86	1983.06	1966.86	1966.86	1955.86	1955.86
487.04	14644.7	1036.54	2333.77	2183.64	2142.84	2127.84	2092.04	2083.04	2103.24	2043.64	2033.84	1997.84	2016.04	2014.24	2020.84	2014.64	1997.24	2012.84	2012.84
487.302	14709.7	1032.86	2374.05	2216.78	2190.18	2155.78	2096.18	2126.38	2118.78	2091.18	2033.38	2063.18	2028.18	2069.38	2036.38	1997.38	2003.98	2046.38	2046.38
487.564	14827.2	1046.48	2408.17	2238.04	2220.24	2185.04	2162.44	2129.84	2124.04	2126.84	2131.04	2091.04	2069.24	2048.44	2048.04	2038.84	2037.04	2027.24	2027.24
487.826	15072.3	1033.16	2450.87	2252.6	2256.8	2248.4	2185.8	2196.6	2163	2135	2128.4	2147.2	2124	2144.2	2093	2088.6	2054.8	2090	2090
488.088	15093.7	1043.38	2471.59	2293.46	2228.66	2226.26	2209.46	2181.46	2178.06	2173.46	2161.46	2173.66	2186.26	2128.86	2099.66	2066.46	2121.06	2084.86	2084.86
488.35	15289.4	1038.84	2509.31	2284.44	2291.84	2276.04	2250.44	2236.64	2236.04	2201.24	2209.24	2188.44	2170.44	2162.84	2150.24	2146.64	2097.04	2140.64	2140.64
488.612	15356	1045.48	2525.75	2378.62	2292.02	2297.62	2262.42	2239.42	2233.02	2208.02	2190.22	2193.82	2161.22	2174.82	2196.42	2171.42	2144.62	2163.22	2163.22
488.873	15637.7	1035.47	2564.55	2380.68	2354.48	2323.08	2316.28	2295.08	2288.28	2286.88	2228.68	2212.68	2193.68	2160.88	2218.08	2199.48	2207.48	2117.28	2117.28
489.135	15658.5	1041.52	2602.81	2424.68	2418.08	2366.68	2336.08	2312.28	2307.68	2284.28	2238.88	2268.48	2200.08	2211.88	2218.68	2204.08	2211.28	2191.68	2191.68
489.397	15902	1031.6	2627.17	2457.04	2460.04	2407.24	2337.44	2321.84	2343.04	2301.04	2307.44	2290.64	2277.24	2255.44	2260.84	2232.24	2251.64	2224.84	2224.84
489.658	16112.9	1043.18	2692.61	2484.14	2458.94	2472.54	2398.54	2427.34	2354.74	2388.74	2327.14	2288.14	2330.14	2275.94	2278.94	2269.14	2293.34	2268.74	2268.74
489.92	16315.7	1035.66	2735.08	2549.08	2509.88	2490.28	2390.28	2420.48	2360.68	2384.08	2371.68	2363.08	2338.08	2336.88	2328.28	2345.68	2294.08	2312.68	2312.68
490.181	16500.1	1037.06	2785.91	2582.78	2523.18	2477.38	2478.78	2419.38	2426.98	2415.98	2375.18	2365.78	2365.98	2348.38	2338.78	2364.18	2300.78	2293.38	2293.38
490.443	16623.8	1042.28	2814.58	2574.78	2537.38	2501.98	2487.38	2482.18	2421.98	2432.78	2404.78	2384.98	2430.98	2379.18	2418.58	2355.78	2396.18	2328.38	2328.38
490.704	16684	1035.32	2846.07	2575.6	2550.6	2569	2484.8	2486.8	2510.2	2456.2	2390.6	2444.2	2440.4	2377.6	2388.6	2385	2384.4	2363.2	2363.2
490.966	16896.7	1045.74	2880.79	2628.46	2626.46	2584.46	2559.46	2562.86	2495.66	2517.06	2467.06	2474.46	2473.46	2466.06	2470.66	2371.66	2404.46	2395.06	2395.06
491.227	17126.1	1035.4	2948.41	2665.28	2671.28	2635.88	2648.48	2602.68	2577.88	2555.48	2576.28	2537.88	2507.88	2491.88	2472.48	2495.68	2467.68	2477.88	2477.88
491.488	17251.7	1035.54	2979.77	2719.9	2692.9	2654.7	2646.1	2649.3	2608.7	2591.3	2607.3	2566.7	2525.5	2551.5	2515.7	2505.3	2495.5	2453.3	2453.3
491.749	17444.2	1033.9	3017.44	2756.24	2763.64	2685.44	2650.04	2660.64	2650.04	2622.44	2601.04	2545.24	2600.44	2563.24	2555.84	2517.84	2534.04	2524.24	2524.24
492.01	17616.9	1033.18	3055.25	2788.18	2775.98	2733.18	2682.78	2667.18	2611.58	2670.38	2689.78	2645.78	2581.78	2580.18	2583.38	2590.18	2581.98	2570.98	2570.98
492.271	17792.2	1038.04	3100.61	2840.28	2825.08	2787.48	2713.88	2709.88	2708.68	2655.48	2668.88	2655.68	2625.48	2607.28	2584.48	2616.08	2589.08	2590.28	2590.28
492.533	18010.4	1033.54	3176.86	2904.26	2863.26	2840.46	2767.86	2764.06	2803.66	2700.26	2691.46	2719.46	2639.86	2653.46	2657.46	2654.26	2618.06	2625.66	2625.66
492.793	18186.8	1034.92	3189.34	2931.94	2899.34	2841.54	2818.14	2765.94	2765.94	2750.94	2772.54	2746.14	2719.54	2737.74	2667.14	2683.34	2669.54	2652.14	2652.14
493.054	18333	1033.66	3250.84	3021.91	2947.31	2948.11	2868.11	2886.11	2843.31	2818.31	2797.11	2780.11	2739.51	2775.51	2683.91	2735.51	2695.51	2704.51	2704.51
493.315	18475.6	1032.98	3264.01	3032.81	2954.61	2863.41	2921.41	2905.01	2803.01	2806.81	2789.41	2770.81	2790.61	2776.41	2735.61	2777.81	2728.81	2712.41	2712.41
493.576	18755.4	1044.24	3322.03	3039.96	3010.76	2919.76	2942.16	2961.56	2872.56	2860.56	2835.16	2798.36	2868.76	2771.96	2823.16	2768.76	2766.16	2677.16	2677.16
493.837	18870.4	1040.66	3355.99	3083.26	3050.06	3007.46	2974.66	2940.46	2860.86	2899.86	2889.26	2863.26	2867.46	2845.86	2811.26	2801.46	2797.86	2783.26	2783.26
494.098	19082.7	1040.22	3402.01	3179.74	3120.54	3046.54	2996.74	2994.14	2982.74	2971.54	2948.14	2913.74	2925.74	2912.94	2874.74	2832.14	2857.54	2871.74	2871.74
494.358	19311.7	1044.5	3474.58	3205.38	3106.58	3095.58	3048.38	3024.58	3023.18	2975.58	2979.98	2933.38	2944.18	2912.78	2957.98	2883.18	2881.78	2901.38	2901.38
494.619	19488.5	1032.8	3530.83	3265.5	3194.1	3166.1	3142.3	3060.5	3052.3	3030.3	3054.1	3025.5	2987.5	2964.9	2978.3	2914.5	2944.9	2911.1	2911.1
494.879	19568.4	1046.14	3556.69	3275.62	3195.22	3185.02	3134.82	3111.82	3089.22	3063.82	3037.62	3035.02	3065.02	3027.42	2969.02	3014.82	2923.22	2952.82	2952.82
495.14	19827.8	1044.88	3625.28	3343.68	3246.68	3225.28	3188.08	3166.28	3143.88	3122.28	3147.28	3063.08	3109.28	3054.68	3066.08	3016.48	3002.08	3017.88	3017.88
495.4	20080.9	1038.12	3702.17	3376.84	3359.84	3288.64	3255.04	3210.04	3200.24	3138.24	3163.44	3188.84	3117.84	3155.44	3135.84	3074.64	3047.84	3063.04	3063.04
495.661	20109.8	1032.72	3730.77	3402.5	3358.9	3290.3	3300.1	3244.3	3204.7	3212.9	3208.1	3168.9	3117.7	3100.3	3089.3	3124.3	3042.9	3126.9	3126.9
495.921	20342.7	1042.88	3773.34	3444.74	3397.54	3375.94	3337.24	3371.14	3272.74	3250.74	3231.94	3199.74	3192.94	3163.14	3144.54	3134.14	3119.14	3110.34	3110.34
496.181	20488.9	1051.12	3849.34	3493.54	3465.94	3410.74	3397.94	3347.34	3324.74	3307.74	3281.94	3271.34	3246.14	3246.74	3161.54	3221.14	3198.54	3113.94	3113.94
496.442	20825.7	1046.64	3904.53	3581.06	3527.46	3477.26	3411.66	3427.66	3388.26	3381.66	3345.66	3324.46	3317.86	3289.66	3263.06	3298.86	3233.86	3172.66	3172.66
496.702	21008.7	1031.92	3981.85	3593.78	3577.78	3515.78	3478.38	3450.38	3451.38	3425.58	3367.58	3371.78	3386.38	3346.38	3276.38	3258.58	3271.98	3277.98	3277.98
496.962	21119.8	1035.02	4004.14	3692.34	3572.54	3524.94	3496.14	3496.34	3465.34	3405.74	3414.14	3383.14	3382.94	3374.54	3325.54	3319.94	3300.34	3299.74	3299.74
497.222	21356.8	1033.02	4065.86	3708.66	3626.46	3619.26	3547.66	3573.66	3537.06	3514.86	3459.06	3423.86	3452.66	3408.86	3390.66	3386.06	3360.06	3332.86	3332.86
497.482	21508.3	1030.04	4103.79	3786.06	3669.86	3654.46	3649.26	3579.86	3550.46	3528.66	3519.06	3516.46	3465.06	3473.26	3440.06	3421.06	3415.66	3399.26	3399.26
497.742	21586.8	1037.02	4158.64	3790.44	3745.44	3731.54	3617.64	3635.44	3575.44	3570.44	3577.24	3486.84	3524.24	3464.24	3462.84	3410.84	3423.84	3438.44	3438.44
498.002	21917.5	1027.24	4272.64	3868.04	3797.64	3801.84	3704.64	3692.64	3641.64	3641.24	3650.04	3618.04	3580.04	3564.04	3551.64	3529.84	3528.24	3468.04	3468.04
498.262	22165.7	1048.64	4331.57	3919.7	3855.9	3834.3	3821.1	3748.9	3745.3	3720.5	3612.1	3647.1	3595.9	3572.1	3609.1	3550.1	3582.5	3519.1	3519.1
498.522	22279	1028.62	4372.31	3942.98	3902.98	3853.38	3809.58	3766.78	3757.38	3692.58	3711.18	3709.38	3637.18	3651.38	3598.18	3566.78	3590.98	3600.58	3600.58
498.781	22443.3	1033.36	4390.13	4009.1	3968.9	3913.3	3882.5	3842.3	3796.9	3752.1	3739.3	3720.7	3717.5	3689.7	3692.9	3589.3	3655.1	3589.3	3589.3
499.041	22601.5	1041.26	4467.27	4087.4	3994.8	3946	3909.4	3899.6	3821.8	3797.8	3788.8	3778.2	3749.8	3742	3704.2	3669	3658.8	3660.2	3660.2
499.301	22925.4	1033.02	4534.77	4127.1	4070.5	4035.1	3950.5	3926.9	3910.3	3864.7	3851.5	3875.9	3788.5	3782.7	3715.9	3699.1	3742.9	3704.1	3704.1
499.56	23103.6	1038.44	4586.95	4201.62	4130.22	4063.82	3944.62	3957.62	3974.02	3882.82	3877.62	3849.62	3868.42	3779.62	3773.02	3732.62	3760.42	3766.42	3766.42
499.82	23135.8	1033.28	4635.35	4210.08	4144.28	4035.68	4024.08	4011.28	3988.48	3930.88	3900.88	3917.88	3851.08	3837.88	3812.48	3833.28	3797.68	3789.88	3789.88
500.079	23392.4	1034.2	4673.94	4284.34	4183.54	4191.54	4035.74	4087.34	4079.54	3958.14	3962.54	3946.74	3968.74	3903.94	3866.74	3882.14	3870.34	3818.34	3818.34
500.339	23650.3	1037.74	4770.91	4359.38	4247.38	4172.58	4136.78	4172.38	4071.38	4077.78	4094.38	4023.98	4025.38	3937.58	3994.18	3947.18	3918.58	3936.18	3936.18
500.598	23886.1	1035.06	4831.4	4371.8	4306.4	4273.8	4230	4177.4	4162	4116.2	4106	4103.8	4037	4019	3989.2	3974.6	3992.8	3919.6	3919.6
500.858	24003.8	1030.02	4922.13	4407.26	4304.66	4374.06	4247.66	4232.06	4166.86	4198.46	4133.86	4107.46	4059.66	4069.66	4044.46	4012.66	4040.26	4022.46	4022.46
501.117	24347.7	1037.02	4964.27	4481.4	4429.6	4393.6	4301.8	4326.2	4273.8	4245.2	4235.8	4201.4	4167	4124	4093.6	4094	4092.6	4071.6	4071.6
501.376	24540.9	1037.68	5043.84	4551.04	4488.04	4458.64	4359.44	4387.64	4328.64	4274.64	4268.84	4219.04	4177.04	4176.04	4158.44	4145.44	4127.04	4103.44	4103.44
501.635	24637.9	1039.3	5135.07	4592.34	4544.54	4472.14	4463.74	4421.54	4381.54	4332.74	4314.94	4242.34	4285.94	4229.34	4209.74	4200.14	4179.14	4136.94	4136.94
501.895	24783.7	1043.38	5163.47	4653.6	4573.8	4531.6	4539.4	4482.2	4421.6	4293.6	4363	4290	4290.2	4285	4286	4260.4	4214.6	4198	4198
502.154	24927.3	1036.62	5233.65	4747.78	4652.78	4574.78	4578.58	4450.58	4504.78	4432.78	4417.98	4358.58	4311.78	4302.78	4307.58	4258.18	4250.98	4258.78	4258.78
502.413	24991.6	1036.14	5258.89	4756.96	4668.96	4590.56	4564.56	4517.16	4534.76	4463.56	4417.96	4350.56	4417.36	4369.76	4285.76	4319.96	4336.76	4270.96	4270.96
502.672	25533.6	1037.68	5400.85	4862.92	4802.12	4724.52	4664.92	4700.12	4605.92	4538.32	4559.92	4497.72	4485.72	4453.32	4457.92	4408.52	4376.92	4404.72	4404.72
502.931	25639.9	1040.66	5391.23	4904.1	4826.1	4693.5	4701.9	4684.7	4627.9	4637.1	4529.9	4528.9	4520.3	4499.5	4492.5	4469.9	4454.1	4395.7	4395.7
503.189	25704.2	1033.54	5514.51	4944.58	4806.38	4795.98	4767.18	4710.98	4633.18	4725.78	4669.98	4582.78	4585.98	4581.78	4504.78	4480.38	4441.98	4479.38	4479.38
503.448	26019.6	1036.48	5516.02	4986.82	4913.82	4878.02	4831.62	4799.22	4775.02	4686.22	4671.62	4660.22	4624.42	4610.82	4585.02	4551.22	4543.22	4533.62	4533.62
503.707	26159.6	1034.12	5610.31	5052.18	5018.98	4958.98	4841.98	4818.58	4757.38	4707.58	4771.78	4703.38	4689.78	4655.58	4603.38	4630.38	4560.78	4565.38	4565.38
503.966	26426.6	1037.42	5694.11	5151.38	5002.18	4993.98	4947.18	4876.58	4831.78	4829.98	4767.18	4785.78	4720.48	4719.78	4716.98	4654.38	4604.38	4617.98	4617.98
504.224	26532.7	1040.38	5756.77	5163.5	5054.7	5074.3	4943.5	4972.1	4856.1	4899.5	4854.5	4811.3	4767.1	4765.1	4729.7	4741.1	4668.9	4631.9	4631.9
504.483	26813.8	1038.56	5863.88	5266.48	5198.88	5130.88	4999.88	5014.48	4994.28	4911.08	4905.48	4891.68	4819.08	4851.08	4822.28	4748.08	4757.68	4733.68	4733.68
504.742	26992.3	1031.94	5926.17	5341.3	5261.5	5198.5	5103.3	5094.7	5027.5	4968.1	4983.3	4992.7	4891.5	4849.7	4862.1	4837.5	4789.5	4809.7	4809.7
505	27224	1035.02	6005.75	5445.68	5336.08	5245.28	5233.88	5140.28	5064.88	5073.08	5066.68	5011.08	4960.88	5007.68	4979.68	4938.08	4894.48	4923.48	4923.48
505.259	27189.8	1034.8	6056.35	5446.42	5271.62	5281.22	5222.62	5174.22	5101.82	5116.02	5095.62	5049.22	5063.62	5060.82	4925.82	4963.82	4876.82	4909.42	4909.42
505.517	27360	1036.58	6104.92	5530.92	5376.72	5350.72	5267.52	5267.72	5168.92	5122.92	5131.72	5103.72	5072.12	5031.32	5009.12	4961.32	4958.92	4916.92	4916.92
505.775	27571.1	1043.88	6196.99	5627.06	5510.46	5381.86	5341.26	5349.06	5255.06	5213.46	5203.46	5119.26	5154.66	5161.46	5074.86	5054.96	5046.46	5023.46	5023.46
506.034	27700.5	1037.07	6301.09	5567.36	5541.16	5433.56	5362.56	5341.16	5325.76	5305.96	5300.36	5196.16	5184.36	5163.56	5131.96	5090.76	5015.76	5107.96	5107.96
506.292	27940.6	1035.46	6349.58	5669.18	5602.18	5594.58	5453.38	5441.78	5363.98	5338.58	5366.38	5298.98	5259.78	5211.78	5205.58	5189.78	5157.18	5164.38	5164.38
506.55	28132.5	1034.28	6404.66	5807.86	5647.26	5629.26	5517.06	5504.06	5460.06	5378.86	5407.66	5295.06	5369.06	5287.66	5285.86	5222.66	5235.26	5243.86	5243.86
506.808	28223.6	1039.02	6485.72	5800.92	5712.12	5633.12	5560.92	5532.52	5470.52	5422.52	5427.92	5414.12	5315.52	5384.32	5299.72	5274.72	5293.72	5218.92	5218.92
507.066	28487	1029.68	6552.54	5891.74	5791.94	5705.54	5702.14	5618.34	5596.34	5526.74	5481.34	5496.54	5434.54	5424.54	5368.54	5411.54	5377.54	5344.94	5344.94
507.324	28684.5	1031.68	6661.33	5994.8	5897.8	5797.4	5723.8	5689.6	5634.2	5521.2	5589.4	5577	5526.2	5509.2	5477.2	5420	5415.4	5384.6	5384.6
507.582	28904.4	1036.16	6741.27	6038.2	5958.6	5888.6	5818.4	5729.6	5726.6	5640.6	5619.2	5634.2	5549.4	5529.6	5527.9	5481.6	5506.4	5448.6	5448.6
507.84	29026	1036.12	6774.52	6059.72	5909.72	5862.52	5796.52	5753.92	5723.52	5712.12	5604.32	5628.92	5644.92	5572.92	5497.12	5566.32	5464.12	5531.32	5531.32
508.098	29361.5	1044.64	6917.07	6187.8	6021.4	5923	5965	5867.6	5818.8	5886.4	5729.2	5685.4	5727	5667.4	5672	5628.6	5606.8	5569.6	5569.6
508.356	29506	1044.22	6921.96	6274.29	6115.09	6021.89	6025.09	5904.29	5908.89	5786.09	5765.09	5826.89	5761.69	5756.29	5671.49	5671.09	5602.49	5632.29	5632.29
508.614	29514.2	1041.24	6969.23	6269.5	6138.5	6060.1	5979.1	5978.5	5839.5	5848.3	5840.7	5781.7	5802.5	5731.9	5741.7	5663.3	5690.9	5678.5	5678.5
508.871	30050	1040.56	7158.28	6392.88	6263.88	6211.68	6132.08	6106.28	6042.68	5955.88	5953.28	5936.28	5837.88	5848.28	5843.28	5803.08	5819.88	5776.68	5776.68
509.129	30253.7	1045.13	7196.78	6435.78	6307.58	6245.58	6154.38	6135.38	6055.18	5967.98	5998.18	5991.38	5981.58	5877.58	5905.58	5805.18	5825.78	5814.58	5814.58
509.387	30465.1	1039.94	7241.19	6474.32	6386.12	6308.92	6231.72	6170.92	6185.12	6060.72	6032.32	6024.12	5976.92	5947.52	5975.12	5883.72	5869.92	5816.92	5816.92
509.644	30688	1037.52	7361.61	6533.48	6417.48	6311.28	6315.68	6226.68	6179.08	6162.28	6147.28	6058.08	6050.08	6060.08	6000.88	5981.28	5985.48	5898.28	5898.28
509.902	30703.1	1043.08	7374.89	6671.02	6489.02	6388.62	6372.42	6302.82	6184.42	6187.82	6159.42	6128.22	6113.82	6080.42	6072.22	6021.22	6007.22	5966.22	5966.22
510.159	30959.6	1028.24	7480.5	6718.7	6516.7	6494.1	6410.1	6310.9	6334.3	6305.5	6259.7	6199.5	6221.1	6197.3	6157.3	6127.5	6069.1	6028.1	6028.1
510.417	31191.5	1038.58	7582.82	6752.02	6609.42	6567.82	6484.62	6452.82	6416.22	6390.82	6317.02	6284.22	6324.22	6236.02	6270.42	6177.42	6166.62	6149.02	6149.02
510.674	31248.4	1041.78	7661.51	6818.64	6750.04	6642.64	6537.24	6529.44	6443.04	6438.04	6392.84	6355.04	6348.24	6263.64	6253.04	6233.84	6200.24	6114.84	6114.84
510.931	31618	1039.44	7747.37	6957.84	6766.64	6715.04	6636.24	6633.04	6554.44	6536.04	6507.84	6442.64	6426.24	6372.64	6345.84	6282.04	6323.84	6316.44	6316.44
511.189	31697.1	1040.96	7856.24	6965.44	6798.84	6756.24	6664.24	6687.84	6546.84	6504.44	6565.04	6539.04	6403.24	6411.64	6425.04	6378.24	6338.64	6306.64	6306.64
511.446	31801.7	1036.08	7875.38	7073.58	6943.38	6809.18	6702.58	6675.78	6666.78	6631.58	6557.38	6557.78	6497.98	6451.78	6429.18	6429.98	6400.58	6381.98	6381.98
511.703	32021.3	1035.54	7933.04	7085.04	7031.04	6908.64	6795.04	6794.84	6715.24	6695.64	6607.64	6595.24	6574.44	6549.64	6523.04	6484.04	6468.04	6397.84	6397.84
511.96	32271.7	1035.34	8081.83	7176.9	7131.5	6958.7	6880.9	6888.1	6818.7	6783.9	6715.9	6713.5	6636.3	6622.7	6615.1	6549.5	6605.9	6488.7	6488.7
512.217	32259.5	1033.16	8123.3	7238.7	7108.5	7081.5	6967.1	6892.5	6889.5	6830.1	6804.7	6761.3	6736.9	6691.9	6653.9	6585.1	6591.1	6603.9	6603.9
512.474	32373.9	1036.44	8198.77	7293.84	7207.64	7049.04	7030.44	6953.64	6909.24	6906.34	6879.44	6789.44	6813.24	6772.84	6664.24	6645.04	6664.84	6581.04	6581.04
512.731	32480.9	1036.44	8263.6	7367.2	7257.6	7187.6	7096	7034.2	6956.6	7012.8	6904.4	6866.6	6895	6765.4	6732.6	6721.4	6694.2	6690.6	6690.6
512.988	32737.1	1045.06	8398.54	7496.14	7361.14	7255.54	7217.54	7111.54	7070.94	7012.94	7067.14	6972.34	6925.74	6869.14	6836.34	6817.54	6741.34	6697.74	6697.74
513.245	32883.3	1045.86	8460.55	7542.88	7393.68	7283.88	7232.48	7188.28	7164.68	7099.08	7088.88	7012.08	7022.48	6919.88	6928.28	6880.28	6878.48	6804.88	6804.88
513.502	33054.3	1036.06	8563.18	7613.45	7402.85	7320.65	7283.05	7271.25	7232.85	7165.85	7128.25	7117.25	7087.05	7012.45	6985.05	6960.65	6861.65	6895.45	6895.45
513.758	33082.4	1038.78	8637.22	7650.22	7522.42	7504.02	7392.42	7314.02	7262.02	7244.62	7177.02	7148.82	7159.22	7097.02	7107.42	7048.62	6964.82	7004.22	7004.22
514.015	33207.8	1048.78	8718.52	7809.32	7571.92	7493.32	7448.72	7377.12	7332.92	7245.42	7211.32	7223.92	7213.52	7137.92	7098.52	7116.72	6947.72	7034.32	7034.32
514.272	33461.4	1041.64	8795.15	7821.42	7672.22	7550.22	7542.22	7487.62	7407.42	7358.02	7332.62	7307.82	7295.82	7267.22	7147.82	7172.62	7165.42	7107.82	7107.82
514.528	33561.8	1042.51	8890.88	7873.08	7711.68	7671.08	7602.68	7544.28	7499.48	7387.28	7368.28	7300.28	7294.08	7305.08	7245.88	7173.08	7221.68	7124.48	7124.48
514.785	33859.7	1032.12	8991.25	7991.98	7778.98	7751.98	7644.18	7596.58	7533.38	7505.38	7492.78	7495.78	7384.58	7404.78	7307.58	7244.98	7235.98	7245.18	7245.18
515.041	34111.4	1039.9	9111.66	8054.06	7922.66	7766.66	7680.06	7661.06	7682.06	7572.46	7556.26	7540.26	7460.26	7437.46	7383.26	7356.66	7397.86	7308.26	7308.26
515.297	34327.8	1038.44	9143.87	8162.14	7923.14	7971.94	7786.34	7778.94	7695.94	7724.14	7648.54	7548.54	7539.54	7490.14	7493.54	7417.34	7366.54	7405.74	7405.74
515.554	34442.6	1039.38	9241.92	8217.92	8023.92	7940.92	7907.12	7830.12	7788.92	7765.12	7636.52	7608.72	7619.52	7548.72	7553.52	7524.72	7457.12	7450.52	7450.52
515.81	34792.2	1038.82	9378.69	8300.82	8131.92	7972.42	7977.62	7936.42	7878.82	7824.22	7734.62	7734.02	7681.42	7651.82	7649.62	7620.82	7554.42	7590.62	7590.62
516.066	34698.7	1041.02	9405.52	8330.52	8209.12	8059.12	7981.72	7977.72	7898.52	7841.12	7826.32	7770.12	7715.72	7680.32	7661.12	7644.32	7606.72	7684.12	7684.12
516.323	34987.7	1034.03	9529.36	8486.36	8331.36	8239.76	8057.16	8101.36	8011.76	7899.76	7939.96	7879.96	7887.16	7877.76	7721.56	7774.96	7692.36	7711.16	7711.16
516.579	34973.7	1037.2	9611.01	8579.28	8371.08	8299.48	8168.68	8168.68	8049.08	8010.68	7957.68	7940.28	7906.08	7865.68	7900.48	7805.08	7786.68	7745.68	7745.68
516.835	35258.9	1037.7	9695.39	8610.39	8512.99	8394.19	8273.99	8198.19	8179.99	8096.79	8076.99	8061.59	8013.59	8000.79	7989.59	7859.99	7893.99	7886.39	7886.39
517.091	35329.5	1045.3	9801.48	8690.68	8575.08	8467.08	8333.68	8294.88	8217.48	8212.08	8174.48	8115.68	8136.68	8013.88	7981.88	7994.68	7922.88	7874.88	7874.88
517.347	35771.2	1036.26	9950.57	8808.7	8578.5	8512.1	8503.9	8516.9	8385.5	8279.5	8234.1	8195.1	8112.1	8143.1	8137.7	8036.9	8054.1	8013.9	8013.9
517.603	35720.3	1035.3	9935.7	8868.7	8666.7	8608.5	8577.5	8401.1	8374.1	8358.9	8306.7	8251.7	8201.1	8207.9	8152.7	8181.3	8078.1	8102.7	8102.7
517.859	35962.5	1031.04	10071	8957.28	8771.48	8691.68	8597.68	8490.48	8389.88	8396.88	8345.28	8241.08	8295.48	8287.48	8210.48	8167.28	8171.48	8085.28	8085.28
518.114	36057.5	1038.46	10099.1	8947.94	8872.74	8725.74	8653.14	8598.54	8515.54	8505.94	8477.34	8328.54	8308.54	8257.54	8298.54	8213.54	8224.44	8205.14	8205.14
518.37	36232.6	1047	10229.5	9055.36	8860.56	8773.76	8639.56	8577.76	8610.56	8580.96	8447.36	8459.36	8457.56	8360.16	8318.76	8346.16	8287.16	8248.36	8248.36
518.626	36366.4	1037.52	10288.2	9151.08	8969.28	8804.68	8797.48	8703.68	8670.68	8606.88	8539.68	8537.88	8452.88	8540.48	8445.68	8445.48	8388.88	8327.88	8327.88
518.882	36447.7	1029.68	10418.4	9260.02	9058.02	8933.82	8840.02	8768.22	8731.42	8711.42	8623.42	8660.62	8609.62	8501.02	8508.42	8437.22	8389.62	8407.82	8407.82
519.137	36813.2	1041.58	10567.5	9349.68	9141.48	9072.28	8942.68	8891.48	8883.68	8775.08	8821.48	8742.88	8642.08	8689.08	8599.28	8552.48	8620.88	8541.68	8541.68
519.393	36782.6	1043.78	10642.2	9462.7	9190.3	9002.5	9010.7	8878.9	8890.1	8841.7	8777.1	8776.9	8719.1	8667.3	8609.7	8624.9	8634.9	8566.7	8566.7
519.648	37138.7	1055.12	10709.4	9486.32	9303.52	9188.32	9093.92	9032.12	9003.12	8968.72	8925.32	8868.92	8851.12	8856.72	8806.92	8753.92	8648.92	8682.52	8682.52
519.904	37291.7	1033.5	10809.6	9526.82	9322.02	9236.62	9195.02	9149.02	9036.62	8998.22	9013.62	8917.42	8820.42	8878.02	8867.62	8833.02	8670.82	8711.42	8711.42
520.159	37357.3	1037.08	10853.9	9630.96	9437.96	9353.56	9204.76	9170.76	9057.76	9026.56	9011.56	8955.16	8929.36	8897.96	8840.56	8874.96	8753.56	8753.36	8753.36
520.415	37532.2	1035.26	10961.2	9670.4	9507	9380.2	9380	9267.4	9152	9109.8	9131.2	9056.4	8958.2	8973.2	8888.8	8924.6	8862.2	8902.2	8902.2
520.67	37727.1	1041.78	11110.2	9763.36	9547.16	9459.96	9453.36	9304.76	9234.76	9198.76	9133.76	9154.36	9106.36	9108.56	9011.16	9058.56	9005.56	8920.16	8920.16
520.925	37913.3	1038.6	11169	9881.48	9622.68	9556.68	9489.48	9467.48	9367.48	9328.48	9275.08	9236.08	9210.28	9206.28	9053.28	9158.88	9072.28	9044.08	9044.08
521.18	37966.9	1046.92	11235.9	9899.24	9728.44	9632.24	9516.84	9517.24	9462.04	9340.84	9268.84	9313.64	9268.04	9201.84	9227.64	9206.04	9161.84	9075.24	9075.24
521.436	38013.2	1035.22	11329.7	9960.06	9823.66	9683.46	9544.46	9546.86	9489.26	9438.86	9381.66	9227.46	9296.46	9230.86	9281.06	9196.06	9162.06	9101.66	9101.66
521.691	38430.3	1033.74	11469.4	10106.6	9934.62	9761.42	9689.02	9692.02	9600.62	9528.02	9480.92	9452.62	9442.22	9350.82	9345.62	9243.02	9263.82	9235.02	9235.02
521.946	38336.7	1034.48	11491.4	10165.4	10043.4	9861.04	9749.84	9744.24	9650.44	9615.24	9525.24	9557.04	9459.24	9439.24	9380.04	9308.04	9332.84	9297.84	9297.84
522.201	38426.4	1043.54	11582.8	10271	10071.6	9954.22	9788.82	9776.22	9725.62	9639.62	9557.42	9574.62	9545.42	9532.22	9426.62	9437.62	9436.82	9302.62	9302.62
522.456	38655.9	1047.08	11746.1	10303.6	10168.2	10032	9977.56	9879.16	9860.36	9785.56	9689.36	9669.36	9608.96	9650.56	9553.56	9497.36	9459.96	9462.16	9462.16
522.71	38730.8	1044.74	11793.3	10358.8	10219.6	10119.4	10000.8	9922.84	9936.44	9848.64	9848.24	9711.64	9713.24	9710.24	9592.84	9494.84	9559.64	9522.84	9522.84
522.965	38862.8	1033.5	11921.6	10513.4	10321	10259.6	10102.6	10023	9892.44	9869.64	9817.04	9841.84	9744.64	9725.04	9674.44	9675.44	9637.64	9550.64	9550.64
523.22	38956.3	1033.02	11979.3	10549.4	10292.2	10241.8	10176.2	10044.4	10027.4	9976.76	9943.76	9964.76	9788.56	9873.36	9774.16	9721.46	9687.76	9681.76	9681.76
523.475	39185.2	1036.84	12091.5	10713.7	10452.7	10305.5	10265.9	10179.9	10150.9	10055.3	10023.5	9925.94	9990.34	9961.34	9936.54	9817.94	9823.54	9801.14	9801.14
523.729	39233.8	1037.24	12139.5	10801.2	10532	10465.2	10316.4	10264.8	10166.8	10134.8	10124.6	10051.6	10063.8	9975.62	9921.42	9919.82	9889.82	9874.22	9874.22
523.984	39289.1	1026.78	12255.6	10751.8	10583.4	10430.6	10380.8	10295.2	10222.6	10213.4	10158.6	10067	10123.8	10051.8	9981.36	9939.36	9958.96	9917.76	9917.76
524.239	39541.3	1051.1	12384.4	10904	10693.4	10622.6	10489.8	10459.2	10405.4	10293.2	10302	10180.4	10210.6	10126.6	10094.2	10100.4	10133.2	9994.24	9994.24
524.493	39733.1	1038.24	12508.5	11025.1	10778.7	10712.9	10549.7	10501.1	10425.3	10367.3	10367.3	10311.1	10280.3	10223.9	10190.7	10159.3	10070.1	10137.9	10137.9
524.748	39816.8	1033.4	12579.2	11082.1	10826.5	10804.9	10656.7	10524.5	10530.1	10462.7	10446.3	10339.5	10361.5	10317.1	10311.7	10226.7	10198.1	10222.7	10222.7
525.002	39788.8	1041.9	12645.5	11108.3	10954.5	10728.7	10725.5	10632.3	10608.5	10498.1	10458.5	10429.7	10362.9	10325.7	10337.7	10319.3	10262.1	10263.3	10263.3
525.256	40108.6	1041.32	12769.6	11204.2	11024.6	10889.8	10887.4	10736	10748	10639.8	10497.8	10466.6	10491.8	10440.6	10466.8	10425.6	10313	10359.4	10359.4
525.511	40198.2	1036.64	12835.5	11273.5	11061.7	10959.9	10854.9	10781.3	10783.1	10727.1	10678.9	10538.1	10592.9	10516.9	10420.1	10500.1	10383.1	10439.3	10439.3
525.765	40275.7	1037.28	12942	11303.8	11094.8	11012.6	10980.4	10843.8	10763.8	10759.6	10706.6	10647.6	10724.4	10523.8	10545	10506.6	10436	10375.6	10375.6
526.019	40589.4	1032.4	13047.1	11498.5	11271.3	11172.3	11105.3	10957.9	10942.1	10878.3	10836.1	10739.3	10704.7	10671.1	10676.9	10605.1	10512.5	10617.1	10617.1
526.273	40357.7	1035.92	13131.7	11524.6	11260.2	11129	11075.4	10970.4	10877.6	10852.2	10818.8	10769.8	10776.2	10682.8	10676.2	10657.4	10643.2	10573.2	10573.2
526.527	40559.7	1039.22	13197.1	11511.7	11284.5	11216.9	11176.1	11149.3	10954.3	10957.7	10918.3	10855.9	10856.7	10798.1	10739.1	10698.1	10671.1	10658.3	10658.3
526.781	40633.8	1040.48	13251.8	11649.2	11428.2	11314.2	11138.7	11141.2	11072.4	10980.4	10966.4	10919.4	10951.2	10878.6	10795.8	10760.2	10722.6	10678.2	10678.2
527.035	40725.8	1039.82	13292.5	11714.2	11470.2	11316.6	11259.6	11152.2	11101.8	11092.6	11061.6	10946.8	10930	10866.6	10834.2	10791.2	10823.4	10729	10729
527.289	40663.5	1039	13367.3	11701.7	11445.9	11307.7	11295.7	11273.1	11190.7	11131.1	11014.1	11062.5	10913.7	10947.3	10870.3	10792.7	10737.1	10845.9	10845.9
527.543	40828.7	1038.32	13491.5	11887.9	11592.7	11520.5	11425.9	11295.3	11303.3	11149.3	11140.9	11011.7	11117.3	11012.5	11059.9	10954.9	10831.9	10939.1	10939.1
527.797	41023.2	1038.2	13632.5	11939.2	11622.8	11480.6	11503.9	11409.6	11330.6	11238.2	11261.2	11163.4	11156.6	11071.2	11025	11013	10979	10895.4	10895.4
528.051	41046	1040.62	13681.2	11956.2	11768.2	11628.8	11487.4	11431.8	11389.2	11269.6	11246.8	11239.6	11188.4	11107.8	11101.2	11143.8	11057.2	11000.4	11000.4
528.305	41206.4	1048.12	13732.3	12022.9	11836.9	11738.9	11627.9	11548.5	11428.9	11486.5	11316.5	11293.7	11311.5	11254.5	11154.9	11154.1	11171.9	11052.1	11052.1
528.558	40659.7	1036.48	13672.2	11962.4	11754.6	11621.8	11446.4	11384.2	11318.8	11253.4	11243.2	11212.6	11150.8	11142	11031.8	11116.8	11076.2	10992.6	10992.6
528.812	41453.8	1034.12	13990.5	12270.5	12015.3	11880.7	11696.3	11648.3	11597.1	11548.7	11502.5	11522.5	11493.3	11341.9	11369.7	11307.9	11323.5	11313.7	11313.7
529.065	41689.8	1038.56	14075.7	12283.5	12016.5	11983.5	11879.1	11762.5	11743.9	11636.5	11584.9	11574.5	11545.9	11491.3	11423.7	11435.3	11396.9	11372.1	11372.1
529.319	41585.5	1047.46	14091.4	12387.6	12111.6	12007.4	11904.8	11774.2	11867	11738.2	11685.2	11658.2	11529.2	11517.8	11456.2	11502.8	11412.6	11513.6	11513.6
529.572	41826.3	1043.16	14279.1	12489	12191.8	12094.2	11990	11966.2	11900.8	11852.2	11750	11757	11741.6	11618.8	11648.4	11631.4	11578.8	11521.4	11521.4
529.826	41765.8	1037.98	14270.3	12534.9	12266.9	12137.9	12056.1	12023.3	11915.1	11885.1	11845.9	11800.7	11737.3	11637.1	11646.9	11627.1	11619.1	11552.1	11552.1
530.079	42033.5	1044	14434	12596.2	12302.4	12158	12109.4	12119.6	12020.6	11888.2	11908.8	11908.6	11885.8	11832	11719.2	11783.8	11739	11626.6	11626.6
530.333	41874.1	1039.06	14495.1	12544.7	12398.3	12285.3	12141.5	12104.3	12001.9	11999.5	11937.7	11852.9	11789.3	11785.9	11733.3	11717.5	11731.9	11605.9	11605.9
530.586	41994.8	1037.6	14517.7	12739.1	12425.9	12320.1	12236.9	12155.3	12128.7	12115.7	12027	11987.3	11842.3	11835.7	11779.7	11801.3	11824.3	11764.1	11764.1
530.839	42141.6	1043.6	14604.4	12821.6	12596.6	12460	12333.8	12282.2	12209.8	12142.6	12164.8	12027.6	12044.8	11975.4	11955	11917.2	11908	11779.6	11779.6
531.092	42277.1	1039.94	14727.1	12980.1	12724.7	12484.1	12360.9	12426.3	12273.1	12289.1	12184.9	12208.5	12172.5	12067.1	12021.1	12053.9	12013.1	11905.3	11905.3
531.345	41647.9	1037.94	14557.9	12810.3	12542.9	12428.5	12268.3	12337.1	12218.1	12089.9	12064.5	12037.7	11925.3	11994.3	11946.5	11905.3	11836.9	11846.7	11846.7
531.598	42383	1060.42	14906.6	13067	12799.8	12700.6	12575.2	12435.6	12470	12349	12318.6	12273.6	12210.8	12185.2	12158.6	12182.2	12139.2	12087.2	12087.2
531.851	42361.1	1041.52	14937.4	13131.1	12909.5	12713.5	12597.7	12534.7	12535.9	12502.3	12379.9	12317.5	12305.9	12309.9	12142.3	12156.5	12128.5	12182.7	12182.7
532.104	42418.8	1033.24	15056.7	13170.5	12949.9	12805.3	12679.5	12692.1	12677.1	12481.1	12450.9	12475.7	12402.1	12308.1	12363.5	12283.7	12287.7	12254.1	12254.1
532.357	42388.6	1035.54	15137.3	13315.5	13032.7	12885.5	12768.1	12756.9	12716.3	12613.3	12473.7	12651.5	12427.7	12422.9	12376.9	12363.3	12351.5	12266.3	12266.3
532.61	42521.7	1030.58	15289.4	13357.6	13180	13052.2	12825.2	12805.8	12742.8	12698.2	12549.2	12641.6	12616.4	12550.4	12535.2	12523.8	12400	12362.6	12362.6
532.863	42514.8	1040.48	15327.3	13555.4	13239.2	13038.6	12915.2	12849	12864.6	12787.2	12776.8	12718.8	12610.8	12649.8	12596	12511	12477.4	12426.2	12426.2
533.115	42680.2	1037.06	15422.5	13590.6	13360.8	13118.6	13096.8	13035.8	12934.6	12889.8	12839.4	12829	12721.8	12695.6	12661.2	12661	12643.6	12566	12566
533.368	42750.2	1045.9	15494.6	13614.2	13388	13183.8	13102.6	13048.6	13010.8	12898.6	12914.6	12796.2	12825	12790.8	12718.8	12668.8	12692	12592.8	12592.8
533.621	42800.9	1034.84	15647.9	13722.9	13498.7	13365.9	13234.9	13113.5	13127.5	13045.7	13028.9	12944.9	12877.3	12842.5	12959.1	12741.1	12760.5	12742.9	12742.9
533.873	42888.8	1036.82	15785.6	13840.3	13547.5	13449.5	13360.3	13197.7	13171.1	13141.9	13016.7	12995.9	12944.1	12919.3	12930.3	12936.3	12858.9	12878.3	12878.3
534.126	42862.9	1041.96	15792.7	13947.5	13617.9	13533.1	13406.9	13277	13224.3	13133.5	13105.3	13069.3	13055.1	12951.9	12937.5	12975.3	12891.5	12823.7	12823.7
534.378	43062.9	1036.38	15939.9	13993.6	13723.8	13613.6	13462.2	13416.6	13408	13304.4	13224.4	13221.8	13142.6	13112.4	13015.8	13025.2	13024	12928	12928
534.631	43087.4	1034.72	16039.7	14085.1	13874.7	13656.1	13497.5	13490.1	13475.5	13381.7	13269.5	13323.3	13181.7	13216.1	13111.3	13072.9	13158.3	13030.7	13030.7
534.883	43124.3	1038.36	16136.7	14138.7	13893.1	13726.9	13669.9	13574.7	13546.3	13438.1	13430.7	13409.3	13319.1	13231.9	13239.9	13166.5	13163.9	13100.7	13100.7
535.135	43267.9	1042.36	16200.4	14249.6	13954.4	13843	13704.8	13652	13568.2	13506.6	13465.2	13394.4	13373.8	13360	13293.8	13248.6	13254.6	13250.4	13250.4
535.388	43214.9	1038.56	16267.5	14277.2	14019.2	13880.6	13666	13691.2	13521	13595.6	13510.6	13442.8	13465.2	13395.6	13343	13297.4	13230.6	13199.8	13199.8
535.64	43320.5	1033.16	16314.4	14384.7	14050.1	13864.9	13860.9	13761.9	13674.7	13637.3	13672.1	13515.3	13525.7	13518.5	13403.3	13356.9	13340.9	13291.1	13291.1
535.892	43425.3	1040.16	16508	14524.8	14150.6	13956.4	13928.2	13753.4	13757.6	13750.8	13605.4	13607.8	13630	13533.6	13474.6	13443.8	13435.6	13352.8	13352.8
536.144	43721.3	1038.72	16616	14529.2	14330	14145.2	14041.2	13961.2	13935.6	13866.8	13843.4	13681.6	13663	13663	13583.6	13626.6	13610.4	13578.6	13578.6
536.396	43855.5	1031.47	16737	14762.8	14413.6	14214.4	14214.6	13983.2	14002.6	13794.6	13877.2	13813.2	13774.8	13737.8	13759.2	13609.2	13581.4	13596.4	13596.4
536.648	43923.8	1033.96	16838.8	14766.4	14472.4	14352.4	14183.4	14179.8	14080	14088.2	13958	13943.2	13865.8	13805.8	13808.2	13815.8	13774.6	13614.6	13614.6
536.9	43915.8	1026.36	16769.4	14930	14516.4	14408	14302.4	14237.4	14058.8	14074	14044	13988.4	13875.6	13902.6	13824.8	13926.2	13866.6	13852.8	13852.8
537.152	44201.7	1031.42	17014.7	14972.2	14606.6	14424.6	14329.4	14269	14215	14174	14134.8	14016.2	14043	14029.8	13982.4	13883.4	13799.6	13941.6	13941.6
537.404	44134.6	1038.54	17058	15006.5	14747.9	14587.1	14463.3	14327.3	14309.1	14207.9	14294.3	14129.5	14104.5	13970.1	14021.3	14028.5	13963.3	13971.9	13971.9
537.655	44281.6	1037.86	17134.1	15117.3	14806.1	14598.3	14520.3	14398.9	14393.9	14378.1	14299.9	14221.5	14164.1	14092.1	14088.7	14164.9	14084.3	14057.9	14057.9
537.907	44547.1	1035.36	17319.2	15228.8	14902	14745.8	14690.8	14591.4	14561	14419.2	14427	14372.8	14307.8	14370.6	14213.4	14263.2	14184.4	14131	14131
538.159	44627.5	1043.26	17421.4	15327.9	15018.5	14934.3	14680.1	14678.3	14622.9	14508.1	14429.1	14473.6	14378.9	14442.9	14309.3	14306.9	14214.3	14242.3	14242.3
538.411	44663.3	1041.36	17486.5	15503.2	15066	14950.6	14898	14799	14632.6	14617.2	14576	14509.6	14521	14437	14382.6	14412.4	14373.2	14343.6	14343.6
538.662	44760.4	1029.52	17585	15540.7	15179	15102.4	14896	14729.4	14802.8	14664	14658.2	14656	14519	14477	14470.6	14483.6	14470.8	14399	14399
538.914	45054.8	1041.82	17720.7	15555.7	15315.3	15156.9	15095.1	14871.3	14819.3	14782.9	14796.1	14679.1	14660.3	14665.3	14662.3	14572.3	14539.7	14550.3	14550.3
539.165	44868.8	1037.86	17821.6	15471	15293.6	15130.4	15082	14922.2	14937	14867.8	14760.4	14689.6	14794.2	14728.6	14647.6	14572	14606.8	14523.8	14523.8
539.416	45150.2	1035.18	17911.3	15748.1	15374.3	15379.9	15189.9	15187.5	15104.5	15044.5	14857.9	14781.3	14786.5	14765.7	14727.3	14709.7	14757.3	14742.5	14742.5
539.668	45386.8	1036.54	18101.8	15933.6	15615.8	15417.4	15385.6	15199.2	15236.6	15088.8	15077.2	14986	14963.8	14993.6	14906.4	14926.2	14857.6	14853.8	14853.8
539.919	45233.8	1029.46	18106.2	15906.4	15631.6	15407	15306	15308	15063.2	15068.2	15081.4	15015.6	14932.8	14905	14862	14874.8	14845.8	14796.2	14796.2
540.17	45387.8	1045.84	18187.3	16001.6	15699	15488.2	15444	15355.2	15236	15204.4	15122.8	15197	15075.2	15067.2	15067.1	14992.6	14900.6	14949.4	14949.4
540.422	45478.9	1042.06	18261.5	16098.5	15869.5	15709.1	15547.5	15376.5	15365.9	15321.3	15285.1	15226.9	15167.9	15189.9	15106.1	15032.1	15061.1	15061.1	15061.1
540.673	45390.8	1039.3	18367.5	16124	15877.4	15728.8	15614	15509	15354.4	15367	15277	15225.6	15196.8	15242.8	15110.8	15188.8	15070.4	15092.4	15092.4
540.924	45646.3	1047.22	18547.2	16223.4	15996.4	15758.8	15713	15612	15565.6	15471.4	15488.6	15463.8	15354	15365.4	15348.8	15287.1	15311.4	15215.8	15215.8
541.175	45830.7	1041.68	18668	16424	16141.6	15870	15888	15783.4	15783.4	15639.6	15603.6	15502.6	15511.6	15456.6	15454.2	15447	15338.8	15322	15322
541.426	45898.4	1030.14	18728.3	16538.6	16210.6	16017.8	15922.8	15755.9	15805	15725	15710	15636.4	15540	15569	15497.2	15468.4	15411.2	15354.6	15354.6
541.677	46067.6	1028.06	18945.4	16590.6	16292.6	16097.2	15967.8	15924.8	15923.8	15841.6	15769.6	15712.2	15674.8	15651	15746.4	15582.2	15588.8	15564.6	15564.6
541.928	46112.1	1039.66	19007.3	16796.4	16399	16243.2	16029.8	16018.6	15908.2	15863.5	15865.2	15806.8	15747.4	15818.2	15748.8	15758.6	15633.4	15767	15767
542.179	45996.1	1040.02	19044.4	16833.7	16401.5	16262.9	16162.3	16038.9	16045.7	15988.1	15927.3	15853.5	15871.3	15795.5	15789.5	15783.3	15746.3	15580.7	15580.7
542.429	46287.9	1042.3	19241.7	16968.1	16592.3	16403.5	16324.1	16108.7	16188.1	16054.5	16106.7	16053.7	15885.1	15927.1	15964.7	15937.1	15801.3	15788.1	15788.1
542.68	46432.8	1036.84	19239.8	17009.2	16759.6	16573	16455.8	16338.2	16216.4	16229	16214.4	16147.6	16105.2	16110.2	16074.6	15977.4	15900	16006.6	16006.6
542.931	46710.3	1042.1	19466.9	17153	16783.2	16668.8	16501.6	16495.6	16394	16366	16315.6	16260.2	16145.8	16200.8	16180.4	16149.8	16164.2	16012.2	16012.2
543.181	46918.8	1039.78	19539.6	17370.6	16820.1	16746.9	16654.7	16629.9	16569.3	16433.1	16376.3	16419.8	16439.5	16262.1	16264.9	16148.5	16227.9	16150.1	16150.1
543.432	46821.7	1039.9	19589.4	17418.9	16956.3	16744.9	16769.1	16702.9	16564.5	16501.1	16468.7	16414.5	16431.8	16376.5	16369.5	16200.7	16212.7	16205.3	16205.3
543.682	47045.7	1033.64	19834.2	17529.2	17077.2	17116.8	16972.4	16820.4	16750.2	16736	16632	16619.2	16545.8	16578.2	16444.6	16534.8	16439.6	16375.8	16375.8
543.933	46995.2	1036.53	19894.2	17608.1	17302.7	17071.7	16975.1	16918.7	16712.5	16820.3	16730.7	16674.5	16590.9	16522.3	16447.3	16556.7	16507.3	16406.7	16406.7
544.183	47266.7	1028.2	20065.9	17720	17470.7	17158.8	17267.6	17016	16981.2	16926.4	16881	16791.8	16752.4	16871.4	16715.4	16663.6	16656.4	16585	16585
544.434	47597.5	1043	20230.5	17910.8	17563	17425.9	17187.6	17176.6	17141	17067.6	16975.2	16992.6	16920.4	16846.2	16851.8	16821	16853.8	16694.4	16694.4
544.684	47749.9	1044.98	20380.7	17967.7	17693.3	17445.4	17376.5	17335.5	17191.5	17140.9	17102.3	17091.1	17018.3	17056.3	16912.3	17056.3	16824.9	16821.5	16821.5
544.934	47742.2	1031.9	20401.7	18037.8	17652.2	17489.2	17379.8	17273.4	17238.6	17273.2	17213.8	17173.6	16973	17023.4	17007	17041	16869.2	16836.2	16836.2
545.184	47882.3	1038.62	20449.4	18134.2	17783	17572.4	17435.6	17379.6	17307.6	17208.8	17141.8	17164.6	17061.8	17027.2	17032.6	16975.6	17023	17020.6	17020.6
545.435	48218.3	1043.7	20688.4	18285.2	17994	17784.4	17608.8	17516.6	17529.8	17399.6	17388	17346	17209.8	17176.2	17235.8	17173.8	17148.8	17071	17071
545.685	48026.7	1040.12	20664.6	18350.8	17965.6	17778	17638.2	17571.4	17454.6	17476.4	17343.8	17263.9	17289.4	17215.2	17231.8	17197.2	17207.8	17205.6	17205.6
545.935	48159.4	1036.82	20823.4	18362.9	17931.3	17801.5	17777.1	17679.7	17632.1	17508.7	17524.3	17538.9	17478.3	17363.1	17359.3	17371.5	17360.5	17301.3	17301.3
546.185	48525.2	1044	21040.9	18660.3	18202.3	18029.1	18004.3	17835.6	17818.7	17743.1	17673.1	17632.9	17709.6	17503.6	17562.7	17485.7	17499.3	17424.8	17424.8
546.435	48429	1037.46	21036.4	18669	18190	18127.2	18018.6	17812.6	17795.2	17793.8	17745.2	17686.4	17612.6	17574.2	17511.4	17530	17479.7	17379	17379
546.684	48898.1	1035.84	21330.8	18956.3	18516.3	18341.4	18223.7	18059.1	17893.5	17986.3	17890.1	17853.5	17819.9	17886.7	17743.5	17650.3	17706.9	17652.9	17652.9
546.934	48624.6	1035.22	21238	18822.3	18436.9	18249.8	18131.3	18040.3	17980.5	17953.5	17912.7	17791.1	17813.7	17720.3	17679.5	17678.7	17679.7	17702.5	17702.5
547.184	48798.5	1042.94	21424.7	18971.4	18658	18453.2	18272.9	18171.8	18153	18208	18016.8	18007	17951.2	17953.8	17842.4	17783	17783.2	17803	17803
547.434	48973.1	1042.57	21556.9	19191.9	18709.9	18601.1	18449.3	18374.9	18253.9	18207.2	18122.9	18184.1	18140.7	18139.9	17975.7	17947.1	17911.5	17940.7	17940.7
547.683	49233.5	1035.46	21811.8	19341.9	18978.9	18664.5	18682.1	18641.2	18371.9	18439.3	18419.1	18357.9	18322.9	18337.1	18189.3	18120.7	18136.5	18124.1	18124.1
547.933	49356.4	1041.1	21863.2	19552.4	19086	18807	18809	18722	18528.2	18529.4	18473	18398.6	18447	18313.8	18368	18287	18258	18231	18231
548.183	49465.2	1042.3	22023.9	19619.1	19251	19028.9	18888.3	18716.6	18765.4	18715.4	18701.5	18544.4	18465.4	18502.6	18490.6	18353.2	18421.6	18416.9	18416.9
548.432	49185.4	1036.72	21942.2	19576.3	19349.5	19085.3	18957.1	18847.3	18783.5	18612.3	18580.7	18582.9	18620.1	18518.9	18518.5	18415.8	18415.1	18337.9	18337.9
548.682	49482.9	1036.92	22278.5	19898.6	19362.8	19309.5	19190.6	19086.3	18951.8	18901.2	18884.8	18793.1	18763.1	18746	18732	18644.4	18659.2	18574.4	18574.4
548.931	49576.2	1041.56	22349.5	19996.5	19570.7	19247.5	19281.1	19054.7	19124.1	18981.7	18989.9	18881.7	18884.5	18827.7	18764.7	18735.5	18733.7	18647.1	18647.1
549.18	49783.5	1043.78	22537.5	19972.7	19707	19386.9	19312.5	19203.1	19140.3	19145.7	19125	19004.8	19000.9	18950.3	18961.3	18880.1	18798.1	18897.1	18897.1
549.43	49766.3	1045.52	22572.3	20178.7	19740.4	19606.3	19507.9	19267.9	19224.1	19209.9	19097	19045.7	19062.1	18993.9	18987.7	18928.7	18865.3	18920.7	18920.7
549.679	49767.1	1037.26	22632	20214.7	19777.1	19659.1	19432.5	19402.6	19383.9	19154.1	19103.6	19127.3	19107.9	19113.9	19100.7	19008.7	18962.9	19015.8	19015.8
549.928	49776.4	1032.54	22772.7	20404.1	19823.1	19761.7	19542.3	19442.4	19465.9	19332.1	19290.7	19222.5	19134.7	19171	19137.3	19126.4	19059.1	19015.3	19015.3
550.177	50028.8	1041.12	22949.6	20491.4	20156	19868.1	19800.8	19628.4	19603.6	19563.6	19474.9	19391.8	19429.8	19392.8	19376.6	19337	19296.8	19180.1	19180.1
550.426	50100.8	1031	23096.3	20569.4	20296.5	19970.6	19865.8	19758.6	19622.2	19788	19530.2	19512.6	19507.7	19425	19297.2	19414.4	19307.1	19329.8	19329.8
550.675	50124.6	1040.54	23119.4	20620.1	20122.8	19998.5	19863.8	19758.3	19621.3	19607.3	19666.4	19515.7	19547.1	19484.3	19495.3	19439.7	19388.1	19309.5	19309.5
550.924	50281.5	1043.64	23287.5	20811	20311.6	20172.2	20039.2	19886.8	19885	19765.4	19768.4	19743.6	19734.8	19646.4	19556.6	19588.8	19533.2	19478.6	19478.6
551.173	50554.6	1042.88	23418.6	20951.4	20479.3	20361.1	20302.9	20098.5	20030.6	19950.3	19828.1	19889	19834.5	19866.7	19666.9	19716.3	19702.7	19648.9	19648.9
551.422	50346.9	1033.52	23394.9	20893.1	20451.1	20300.2	20190.5	20194.3	19955.4	19934.5	19936.8	19855.1	19833.8	19828.3	19834.1	19694.1	19517.1	19565.1	19565.1
551.671	50670.6	1041.78	23674.6	21141.8	20669.9	20550.9	20410.9	20285.5	20204.3	20177.9	20230.2	20069.5	20064.5	19993.1	19901.7	19993.7	19896.9	19848.9	19848.9
551.92	50526.8	1042.06	23699	21100.9	20652.1	20527.9	20585.7	20396.8	20244.5	20159.1	20166.7	19986.9	20121.5	19934.5	19992.7	19978.9	19879.8	19935.7	19935.7
552.169	50904.3	1035.18	23867.6	21407.5	20930.1	20761.1	20706.9	20583.1	20421.1	20356.3	20335.9	20285.8	20263.7	20113.1	20177.1	20165.7	20062.2	20146.1	20146.1
552.417	50799.2	1044.58	23888	21404.5	20937.5	20719.5	20608.1	20540.1	20450.6	20336.7	20322.1	20363.1	20231.1	20175.3	20145.3	20094.3	20040.1	20163.5	20163.5
552.666	51135	1039.8	24077.6	21526.7	21015.7	20817.1	20766.2	20670.9	20537.1	20525.2	20443.8	20334.5	20395.5	20380.5	20326.8	20319.9	20186.9	20161.3	20161.3
552.914	51442.5	1031.06	24267.4	21645.9	21251.3	21019.7	20929.5	20739.6	20719.9	20637	20619.9	20603.5	20562.1	20529.3	20597.1	20362.9	20345.8	20417.1	20417.1
553.163	51349.3	1041.56	24197.3	21643.2	21267	21174	21028.6	20916.8	20899.2	20620	20644.1	20655.6	20552.4	20510.8	20628.6	20497	20466.8	20457.5	20457.5
553.411	51370.7	1042	24255	21766.7	21340.1	21233.1	21000.1	20851.1	20906.3	20867.1	20770.5	20704.5	20638.3	20541.7	20616.4	20492.7	20488.7	20426.9	20426.9
553.66	51601	1046.3	24288.4	21775.5	21362.1	21221.7	21066.3	21122.2	20913.9	20874.4	20793.5	20809.1	20718.1	20717.7	20795.7	20675.7	20649.5	20566.1	20566.1
553.908	51882.1	1035.18	24489	22064	21535.9	21413.5	21218.2	21191.9	21127.5	21135.2	20960.9	21027.3	20936.7	20866.9	20831.4	20717.9	20732.7	20736.9	20736.9
554.156	52107.1	1048.16	24707	22120.5	21799.8	21645.4	21484.9	21315.7	21252.4	21213.4	21183.4	21123.6	21039	20974.8	20984	20932	20976.8	20840.8	20840.8
554.405	52066.8	1033.86	24711.9	22276.7	21833.9	21628.3	21406.1	21451.7	21314	21148.3	21232.5	21155.9	21032.3	20979.9	20968.6	20951.1	20935	20867.1	20867.1
554.653	52266.9	1041.46	24864.4	22321.3	21934.8	21707	21594	21520.1	21363.4	21344.2	21382.8	21322.3	21257.9	21156	21070.5	21114.6	21135	21218.2	21218.2
554.901	52384.5	1046.24	24964.2	22503.1	21967.9	21907.6	21662	21708.7	21502.1	21496	21508	21368.8	21326.6	21397	21258.1	21224.2	21217.2	21223	21223
555.149	52407.6	1041.3	25032.5	22585.4	22099.5	21946.4	21765.1	21748.9	21675.5	21607.6	21606.3	21537.7	21494.7	21379.9	21345.3	21290.1	21306.7	21301.2	21301.2
555.397	52738.8	1041.54	25187.5	22656.7	22351.2	22190	21978.8	21906.9	21832.8	21722.8	21739.1	21577.8	21609.8	21611.9	21509.2	21579.7	21476	21425.2	21425.2
555.645	52808.6	1041.04	25233.3	22688.8	22339.2	22176.5	22006.5	21896.6	21829.2	21757.6	21680.8	21544.8	21715.2	21614.6	21630	21532.2	21450.8	21516.4	21516.4
555.893	52829.8	1043.09	25259.3	22888.7	22423.1	22290.6	22121.2	21977.4	21894.6	21947.2	21812.4	21789.4	21736	21707.3	21560.8	21641.6	21589.7	21589.4	21589.4
556.141	53030.2	1035.82	25405.7	22898.7	22630.7	22327.3	22232.3	22118.9	22164.9	21990.5	21950.3	21938	21913.5	21738.9	21793.2	21639.6	21797.1	21662.9	21662.9
556.389	53422.7	1030.04	25664.7	23138.4	22764.8	22612.7	22488.2	22335.4	22283.2	22286.8	22094.6	22051	22023.8	22007.5	22010.1	21980.1	21931.3	21914	21914
556.637	53526.9	1041.76	25784.8	23337	22839.9	22549.3	22547.1	22490.8	22401.7	22327.5	22287.9	22286.2	22208.4	22159.9	21997.7	22022.4	22071.3	22043.5	22043.5
556.884	53645.4	1048.7	25920.4	23499.9	23048.1	22811.6	22686.3	22554.1	22487.4	22483.7	22385.8	22360.8	22273.4	22264.5	22224.9	22215.8	22278	22217.3	22217.3
557.132	53675.9	1036.16	25960	23381.8	23090.4	22900.4	22691.1	22627.4	22505.5	22489.7	22417.4	22387.8	22341	22396.6	22200.6	22193.8	22190.9	22190.4	22190.4
557.38	53881	1036.12	26038.8	23701.7	23108.4	22915.5	22713.8	22710.4	22638.2	22620.4	22624.6	22509.9	22475.5	22436.4	22439.8	22321.9	22365	22358.8	22358.8
557.627	54001.3	1043.02	26135.1	23615.9	23139.4	22972.1	22933	22828.8	22685.2	22721.2	22688.5	22570.3	22473.5	22516.9	22557.3	22455.3	22366.5	22300.9	22300.9
557.875	54198.5	1030.64	26260.6	23799.5	23437.4	23274.8	23035.9	22951.3	22911.1	22816.8	22661.7	22774.2	22701.6	22613.8	22702.6	22635	22636.9	22429.6	22429.6
558.122	54095.7	1037.71	26265.8	23824.7	23391.8	23206.6	23002.8	22913.1	22911.9	22904.3	22836.9	22778.4	22856.7	22622.3	22563.3	22645.8	22612.1	22622.7	22622.7
558.369	54377.5	1042.54	26486.5	24125.5	23697.7	23492.8	23446.1	23239.5	23190.6	23102.9	23017	22981.5	23044.7	22869.1	22926.1	22887.9	22773.7	22877.5	22877.5
558.617	54471.6	1035.4	26725.5	24155.3	23767.7	23639.7	23437.7	23385.7	23238	23272.7	23188.5	23109.4	23085.7	23037.8	23023.3	23008	23015.7	22937.3	22937.3
558.864	54373.8	1036.65	26791.1	24242.6	23898.9	23653	23499.8	23347.1	23254.3	23291.2	23174.9	23139.3	23026.2	23021	23043.3	23067.4	22980	23105	23105
559.111	54874.1	1037.5	27047	24516.8	24035	23914.9	23734.3	23562.1	23602.6	23513	23556.5	23384.1	23407.1	23372.3	23241.2	23300.2	23356.5	23301.6	23301.6
559.359	54609.2	1036.04	26917.7	24381.6	24127.6	23842.2	23564.8	23575.9	23485.7	23496.3	23489.8	23289.6	23388.9	23375.8	23305.9	23358.7	23257.6	23267.2	23267.2
559.606	55024	1040.1	27083.4	24650.8	24279.6	24095.2	23844.3	23945.7	23756.2	23713	23635.4	23602.6	23623.3	23496.4	23506.2	23454.5	23582.1	23467	23467
559.853	55038.9	1028.7	27265.9	24863.9	24419.5	24166	24000.6	23971.3	23890.8	23841.2	23884.5	23790.6	23702.3	23653.6	23654.4	23563.4	23557.5	23491.2	23491.2
560.1	55227.6	1032.86	27392.8	24889.1	24517.3	24355.8	24179.1	24222.1	24044.3	24042.9	23911.1	23880.3	23891.6	23831.3	23648.6	23716.7	23712.9	23636.3	23636.3
560.347	55110	1033.4	27367.4	24897.6	24503.8	24336.2	24335.1	24060.6	24140.3	23955	23978.9	23839	23892.8	23801.3	23754	23701.9	23673.5	23649	23649
560.594	55136.9	1043.3	27333.8	25031	24567.6	24398.3	24316.5	24089.4	24007	24037.6	23848.3	23963.7	23979.4	23854.6	23799.2	23862.4	23748.3	23804.6	23804.6
560.841	55478.3	1041.22	27665.6	25256.2	24713.9	24595.4	24509.8	24322.6	24285.1	24275.3	24155.2	24106.8	24131.3	24084	24008.8	24017.4	23884.8	23954.9	23954.9
561.087	55336.6	1034.1	27650.9	25296.9	24895.5	24525.9	24510	24408.2	24292.9	24228.4	24165.2	24149.6	24188.6	24090.5	24091.3	23990.4	24028.2	23982.6	23982.6
561.334	55515.5	1039.92	27759.5	25384.8	24939.2	24769.5	24694.2	24499.3	24541.2	24419.9	24394.1	24226.9	24251.9	24229	24173.2	24193.2	24105.4	24117.7	24117.7
561.581	55529	1035.48	27848.8	25531.7	24971	24824.6	24769.6	24658.2	24635.2	24390.1	24536.9	24354.6	24341.1	24312	24445.8	24398.3	24247.2	24170.9	24170.9
561.828	55842.5	1044.94	28032.2	25682.7	25253.9	25056.3	24907.2	24870.7	24823	24694.4	24684.6	24537.1	24537.1	24459.8	24578.8	24538.6	24409.7	24406.6	24406.6
562.074	55594.1	1041	28029.4	25701.6	25178.8	25062.7	24831.9	24875.2	24725.4	24673.4	24657.3	24620.9	24529.9	24461.4	24455.6	24402.2	24442.7	24389.7	24389.7
562.321	56102.1	1044.57	28354.4	25913.7	25510.9	25196.3	25158.5	24984	24994.4	25004.4	24900.6	24802.5	24804.5	24698.3	24754.5	24798.3	24745.6	24648.5	24648.5
562.567	55966.7	1040.54	28290.1	25935.8	25435.8	25229.3	25153.8	25007.3	24926.4	24935.9	24829.1	24872.5	24727.8	24592.9	24696.3	24721.9	24584.7	24559.4	24559.4
562.814	56271.8	1040.42	28557.3	26157.4	25678.1	25569.2	25430.5	25157.4	25231.6	25048.2	25076.7	24989.8	24949.2	24888.5	24961.7	25011.6	24892.9	24960.2	24960.2
563.06	56163.6	1037.28	28518.2	26123.4	25688.3	25465.3	25269.3	25215.9	25259.6	25112.8	25145	25084	25059.8	25074.2	25026.2	24918.6	24947.8	24900.9	24900.9
563.306	55984.5	1033.33	28500.1	26206.8	25699.5	25523.9	25444.1	25398.5	25272.2	25178.5	25229.8	25149.5	25007.9	25064.9	24912.5	25047.2	25111	24955.1	24955.1
563.553	56058.1	1034.12	28553.7	26318	25808.3	25577.6	25581.7	25403.5	25357.5	25298.3	25314.3	25180.5	25250.5	25163.2	25047.3	24984.2	25111.4	24984.4	24984.4
563.799	56205.2	1033.72	28667.4	26512.4	26041.5	25756.1	25751.1	25579.1	25561.2	25504.2	25318.3	25386.3	25313.3	25285.4	25350.2	25254.8	25177.7	25219.6	25219.6
564.045	56253.5	1032.66	28767.4	26539.2	25986.2	25835.3	25663	25701.8	25474	25498.7	25417	25404.4	25342.7	25292.9	25223.1	25284	25271.2	25345	25345
564.291	56549.3	1033.94	29015.5	26726.6	26370.2	26152.1	25899.2	25869.8	25823	25674.9	25466.2	25593.4	25650.6	25588.4	25549.6	25483.2	25486.6	25419.6	25419.6
564.537	56417.4	1039.18	28919	26640	26261.5	26146	26039.3	25816.3	25852.6	25837.7	25726	25633.8	25621.6	25626.2	25567.1	25527.7	25544.5	25559.3	25559.3
564.783	56436.5	1036.12	29066.8	26846.2	26407.4	26224.4	25978.7	25985.3	25849.3	25797.3	25750.1	25869.9	25689.5	25653.1	25618.1	25646.7	25710.8	25544.6	25544.6
565.029	56610.3	1033.54	29269.4	26992.8	26609.4	26293.6	26260.8	26048.1	26081.4	25940.8	25918.5	25916.9	25895.9	25803.8	25791.5	25786	25595.9	25643.4	25643.4
565.275	56568.9	1041.42	29255.8	27117	26636.4	26348.5	26183.1	26105.6	26148.9	26020.9	25988.4	25925.7	25817	25913.7	25781.4	25837.3	25649.4	25640.8	25640.8
565.521	56565	1027.82	29289.7	27097.1	26672	26473.8	26404.8	26171	26146.6	26111.9	26054	26056.8	25941.8	25913.4	25913.5	25823.8	25815.9	25792.7	25792.7
565.767	56627.4	1043.46	29312.9	27084.5	26653.3	26456.7	26326.9	26237.3	26270.6	26058.2	26068.4	26065.6	26022	25929.5	25887	25949.7	25886	25954.2	25954.2
566.013	56609.7	1040.08	29307.1	27107.5	26721.1	26504	26357.3	26326.3	26136.1	26127.8	26081.2	26065.8	26016.3	25910.8	26074.6	25887.3	25920.9	25920	25920
566.258	56757.4	1039.34	29436	27201.2	26740.5	26669.3	26519.1	26457.8	26268.5	26176	26161.5	26133.4	26116.4	26090.6	26006.8	26004.1	25920.1	26039.6	26039.6
566.504	56844.5	1033.96	29523.3	27249.7	26931.3	26786.6	26534.5	26490.6	26439.5	26380.1	26273	26287	26414.1	26219.8	26131.7	26284.2	26082.2	26038.8	26038.8
566.75	56688.4	1036.58	29402.5	27174.3	26704.3	26587.8	26472.6	26436.8	26331.2	26438.8	26307.3	26137.3	26185.5	26127.4	26146	26120.7	25992.7	26173.8	26173.8
566.995	57115.8	1031.66	29834.8	27511.4	27138.4	27005.7	26847	26720.4	26732.3	26581.8	26526	26426.2	26551.9	26384	26441.8	26390.6	26393.6	26348.4	26348.4
567.241	56649.3	1037.88	29515.1	27229.5	26883.4	26703.8	26739.4	26563.6	26466.5	26414.2	26443.5	26246.8	26353.9	26197.5	26301.9	26100.9	26207.5	26120.3	26120.3
567.486	56945.4	1039.42	29743.2	27437.9	27021.7	26922.3	26753.3	26695.5	26579.1	26580.8	26552.8	26494.3	26413.6	26483.5	26257.5	26366.9	26366.6	26244.1	26244.1
567.732	56829.9	1024.94	29630	27521.7	27002.7	26870.9	26758.4	26521.7	26631.1	26530.1	26502.4	26388	26384.7	26438.7	26337.7	26338.3	26290.1	26340.5	26340.5
567.977	56753.5	1032.6	29585.5	27508.9	27089.6	26896.6	26641.5	26662.4	26584.3	26499.8	26328.4	26452.2	26348.7	26481.7	26397.3	26272.9	26319.6	26326.5	26326.5
568.222	56950.2	1043.76	29742.7	27601.2	27300.4	26987.8	26849.7	26869.4	26699.9	26658.8	26700.9	26659.5	26518.6	26620.5	26539.5	26538.4	26515.9	26410.4	26410.4
568.467	57048.3	1040.84	29968.7	27720.4	27414.2	27172	27062.8	27079.3	26811.8	26799.6	26834.5	26827.2	26646.3	26794.3	26633.6	26589.2	26629.3	26660.8	26660.8
568.713	56923.2	1044.98	30000.9	27885.8	27335.2	27176.4	27115.1	26852	26908.2	26864.3	26775.8	26789.1	26718.3	26867.8	26716.7	26656.4	26692	26597.5	26597.5
568.958	56950.2	1034.54	30065	27810.5	27406	27254.2	27204.3	26975.5	26924.8	26908.2	26943	26937.1	26854.1	26786.8	26796.3	26702.3	26795.5	26709	26709
569.203	56940.2	1037.82	30046.6	27752.8	27519.7	27359.1	27241.4	27053.2	27055.6	26932	26846.4	26885	26771	26701.8	26724.5	26625.8	26643.7	26576.4	26576.4
569.448	56935.3	1043.76	29943	28030.2	27548.7	27285.6	27174.4	27184.6	26958.4	27048.1	26995.6	26866.4	26917	26778.6	26855.4	26814.4	26820.3	26661.1	26661.1
569.693	56969	1035.6	30086.2	27933.6	27353.7	27209.5	27254.3	27164	27020.3	27057.3	26848.9	27016.3	26915.1	26960.8	26796.2	26791.8	26891.8	26687.1	26687.1
569.938	56873.9	1039.9	29961.6	27850.5	27467.7	27333.3	27193.9	27102.3	27114.5	27097.8	26984	26953.1	26942.3	26884.4	26928.5	26793.1	26701.2	26888.1	26888.1
570.183	57150.4	1041.2	30192.6	28061.7	27690.2	27542.6	27414	27378.9	27279.2	27122.9	27185.7	27096.8	27050.3	27050.6	26934.7	26974.6	26962.6	26971.1	26971.1
570.427	56982	1044	30045.3	28082.2	27784.6	27557.5	27412	27377.5	27249.1	27265.5	27107	27112	27080.5	27051.7	27129	26960.9	27067.9	26945.6	26945.6
570.672	57054.2	1040.6	30186.6	28133.9	27767.4	27632.9	27452.6	27318.2	27298.5	27368.7	27127.5	27188.7	27235.4	27101.7	27147.7	27119.1	26931.4	27085.8	27085.8
570.917	57062.4	1045.64	30332.1	28208.5	27852.5	27750.6	27511.7	27488.5	27370.5	27456.2	27398.6	27294.3	27286.7	27266.1	27269.5	27191	27190.2	27096.7	27096.7
571.162	56847.1	1031.22	30234.6	28144.1	27788.6	27715	27630.3	27513.1	27403.1	27381.1	27229.8	27239.3	27219.7	27315.9	27205.6	27122.5	27173	27166.8	27166.8
571.406	57267.2	1035.9	30478.9	28479.1	28141.9	27980.1	27784.6	27789.4	27698.7	27550.6	27557.2	27654.5	27527.3	27498.3	27394.3	27500	27350.1	27381.9	27381.9
571.651	57181.3	1036.5	30458.7	28299.1	27941.4	27992.2	27821.9	27743.3	27601.3	27570.7	27580.4	27488.6	27390.7	27442.7	27496.4	27394.4	27464.9	27446	27446
571.895	56983.4	1032.96	30451	28391.9	28155.5	27850.4	27676.3	27671.9	27584.6	27525.5	27594.6	27518	27355.4	27295.4	27389.1	27412.7	27313	27325.9	27325.9
572.14	57088.9	1034.82	30488.7	28593.5	28132.4	28098.1	27950.2	27847.5	27818.6	27852.5	27759.9	27607.1	27596.6	27660.8	27648.9	27545	27555.2	27570	27570
572.384	57053.2	1043.98	30494.4	28615	28240.6	28016.9	27963.8	27844.4	27891.6	27853.7	27834	27701.3	27662.9	27758.6	27561.1	27492.9	27580.3	27490.6	27490.6
572.628	57034	1030.96	30468.2	28614.2	28302.4	28085.3	28013.1	27898.1	27892.8	27838.4	27644.9	27729.4	27733.3	27630.2	27558.5	27614.2	27640.2	27572.2	27572.2
572.873	57301.8	1038.4	30685.7	28794.5	28397	28231.2	28204.9	28182.4	28116.4	27953.8	27853.3	27823.5	27972.9	27872.1	27758.4	27898	27818	27698.1	27698.1
573.117	57228.4	1037.62	30652.4	28751.1	28428.3	28378.6	28141.2	28141	27961.2	28024.2	27853.9	27893.9	27880.8	27821.4	27879.7	27873.9	27761.1	27675.3	27675.3
573.361	57257.8	1040.18	30778.5	28889.5	28500.2	28424.7	28293.3	28300.2	28122.2	27971	27882.7	27952.8	28010	27837.9	27997.3	27831.8	27891.9	27753.8	27753.8
573.605	57163.5	1024.04	30732.2	28956.2	28469.6	28325.3	28208.6	28079.2	28132	28045.4	27995.1	28019.9	27895.2	27907.9	27909.4	27832.6	27883.8	27836.6	27836.6
573.849	56983	1039.12	30707.2	28902.9	28486.9	28210.7	28169.2	28025.7	27988.9	28102.4	27880.5	28005.6	27827	27887.9	27883.3	27748.4	27647.3	27814.2	27814.2
574.093	57077.7	1036.18	30724.3	29001.8	28660.5	28419.5	28178.8	28219.4	28126.7	28158.3	28151.4	28093.4	28059.1	27975.5	28024.7	28025.3	27947.5	27958.3	27958.3
574.337	57142.3	1037.82	30908	29016.6	28709.8	28592.2	28480	28395.7	28372.4	28334.2	28144.2	28109.1	28279.9	28287.2	27975.2	28146.5	28028.5	28036.5	28036.5
574.581	57205.2	1035.94	30978.5	29094.5	28807.3	28498.2	28437.7	28382.8	28393.9	28401.7	28368	28273.3	28262.9	28306.5	28268.6	28208.3	28223.6	28172.7	28172.7
574.825	57265.4	1032.6	31093.6	29294	28942.7	28571	28572.5	28551.9	28411.5	28474.1	28385.2	28428.2	28270.2	28381.4	28194.5	28301.1	28172.3	28303.2	28303.2
575.069	57026	1034.9	30909.5	29118.1	28768.4	28584.2	28500.4	28503.4	28364.9	28314.3	28234.3	28202	28246.5	28236	28234	28060	28154.1	28178.6	28178.6
575.313	57150.5	1043.94	31036.7	29284.6	28869.8	28698.9	28693.1	28555.8	28550.8	28472.3	28475.7	28375.9	28450.7	28327	28485	28243.3	28365.7	28300.2	28300.2
575.556	57267.2	1039.42	30977.6	29274.7	29033.3	28858.4	28663.4	28666.7	28614.6	28506.8	28445.6	28526.9	28554.5	28444.8	28377.6	28294.1	28382.9	28389.8	28389.8
575.8	57107.4	1037.9	31059.9	29139	28832.8	28818.9	28681.4	28597.5	28516.4	28475.1	28559.8	28456.7	28436.6	28294.2	28381.6	28433.2	28333.5	28341.6	28341.6
576.044	57296.3	1037.56	31161.6	29309.9	29011.1	28873.5	28803.5	28673.4	28778.8	28662.8	28663.4	28566.3	28602.6	28526.9	28456.8	28502.2	28565	28443	28443
576.287	57103	1045.76	31153.8	29394.8	29014.1	28877	28741.8	28695.4	28647.7	28644.2	28602.4	28662.8	28588.3	28503.6	28325.3	28511	28547.6	28369.9	28369.9
576.531	57112.5	1036.58	31107.8	29541.2	29126.5	28997.9	28836.5	28751.7	28749.5	28608	28568.1	28799.8	28579.4	28693.7	28579.4	28541.1	28570.5	28593.4	28593.4
576.774	57143.9	1039.52	31159.7	29498.6	29037.5	29071.9	28846.4	28772.7	28724.5	28658.3	28697.7	28671.9	28599.5	28671.6	28690.2	28489.1	28642.9	28602.6	28602.6
577.018	57160.1	1034.12	31266.1	29566.2	29206.2	28992.9	28889.6	28818.3	28908	28795.6	28666.8	28679.5	28597.8	28611.2	28531.4	28551	28529	28457.4	28457.4
577.261	57202.3	1039.76	31205	29416	29147.1	29027.1	28888.3	28763.4	28765.1	28655.2	28651.3	28592.1	28569.4	28586.6	28576	28524.9	28556	28483.9	28483.9
577.504	57418.9	1046.74	31375.9	29660.1	29344	29105.3	29036.7	29025.7	29069	28780.9	28894.7	28840.7	28751.7	28814.5	28702	28734.1	28735.5	28661.6	28661.6
577.747	57213.5	1043.54	31164	29560.5	29394.4	29150.4	29016.4	29044.2	28873.2	28815	28780.8	28733.8	28694.4	28764.7	28661.6	28680.3	28659.8	28644.2	28644.2
577.991	57224.8	1025.8	31244.4	29633.2	29415.3	29141.2	29078.5	29028.6	28848.9	28805.3	28868.4	28886.6	28747.4	28773.5	28808.3	28700.4	28703.1	28575.1	28575.1
578.234	57186.4	1038.89	31273.8	29627.3	29288.5	29126.2	29086.4	28981.4	28895.7	28986.7	28906.9	28863.2	28685.3	28843.1	28652.5	28730.4	28641.1	28759.1	28759.1
578.477	57204	1038.94	31246.9	29717.3	29425.3	29133	29060	29140.4	28977.5	28960.6	28856.4	28888.6	28828.6	28830.6	28798.5	28914	28773.5	28800	28800
578.72	57065.4	1037.82	31257.8	29728.4	29216	29179.4	29019.1	28970.3	28873.6	28919.4	28648.1	28717.1	28887.3	28726.9	28753.6	28719.6	28604.5	28718.6	28718.6
578.963	57143.8	1036.78	31291.8	29768.4	29397.6	29278.4	29220.1	29059.7	29128.4	28925.4	28979.9	28813.4	28823.2	28743.7	28793.2	28729	28707.8	28703.4	28703.4
579.206	57031.3	1038.18	31283.4	29675.3	29456.9	29317	29127.5	29031.5	29066.9	28859.2	28802.8	28878.6	28832.4	28819	28861.1	28819.6	28663.9	28845.8	28845.8
579.448	56937.6	1031.84	31278.5	29771.2	29461.1	29294.9	29064.6	29056.3	29112.4	28908.4	28834.4	28856.9	28733.5	28730.2	28733	28795.8	28669.7	28750.3	28750.3
579.691	57164.3	1035.94	31402.4	29930.1	29583.4	29408.4	29255.2	29177.6	29258	29137.3	28942.8	29064.3	28957.6	29044.7	29027.6	29050.4	28859.4	28972.6	28972.6
579.934	57055.7	1047.48	31401.1	29788.1	29522.9	29342.3	29299	29144.1	29151.5	29099.9	28956	29055.8	28820.9	28822.1	28888.2	28887.6	28779.3	28891.5	28891.5
580.177	57236.9	1034.94	31441.4	29883.5	29454.8	29317.4	29267	29175	29131.5	29056.6	29157.4	28949.4	28955.1	28936	28844.7	28936.4	28859.8	28875.5	28875.5
580.419	57075.1	1045.52	31497.7	29935.8	29506	29348.1	29269.9	29132.2	29340.8	29178.6	29067.3	28932.4	28888.3	28862.2	29004.8	28919	28910.5	28966.3	28966.3
580.662	57277.5	1036.9	31588.6	30020.5	29693.2	29514.5	29385.1	29405.2	29302.7	29372.3	29268	29223.7	29178	29064.3	29094.7	29114	29196	28975.5	28975.5
580.905	57216.7	1035.4	31494.9	29917.7	29697.8	29382	29381.9	29365.9	29388.2	29169	29142.7	29102.2	28988.1	29104.9	29071	29157.6	29019.1	29048	29048
581.147	57112.7	1040.48	31438.3	29779.5	29620.8	29455	29445	29184.5	29406.9	29350.8	29287.2	29207.8	29122.2	29125.7	29200.6	29151.7	29033.3	29158.3	29158.3
581.389	57057.3	1066.64	31487.2	29955.3	29630.5	29572.5	29552	29342.4	29320.7	29282.2	29303.3	29345.9	29257.5	29177.8	29207.4	29170.4	29076.2	29168.1	29168.1
581.632	56984.7	1041.66	31470.5	29943.2	29750.3	29628.9	29346.3	29456.5	29276.6	29272.1	29334.2	29300.6	29250.2	29185.8	29197.8	29206.5	29073.2	28994.3	28994.3
581.874	57140	1042.37	31568.8	30106.6	29720.2	29737.7	29718	29420.8	29471.6	29343.4	29345.7	29319.3	29357.5	29312.3	29395.5	29318.9	29270.7	29306.1	29306.1
582.116	57165.2	1044.84	31605.6	30077.5	29753.5	29554.3	29572.1	29525.1	29486.8	29406.6	29410.6	29487.5	29149.4	29240.8	29325.7	29218.3	29202	29284.9	29284.9
582.359	56920.6	1037.2	31445.7	29949.7	29731.1	29656.7	29516.7	29537.9	29352	29395.8	29305.5	29396.2	29322.4	29308.1	29185.7	29306.4	29217.4	29296.3	29296.3
582.601	57090.1	1039.78	31605.9	30107.7	29949.9	29777	29707.3	29563.5	29457.2	29588.9	29521.8	29427.1	29472.8	29550.4	29320.9	29452.1	29290.7	29333.7	29333.7
582.843	57016.5	1034.98	31611.7	30280.6	29860.4	29808.1	29631.6	29667	29561.1	29464.5	29556.5	29491	29530.3	29293.8	29377.8	29515.7	29262.2	29200.7	29200.7
583.085	56828.9	1041.94	31634.3	30064.8	29832.6	29641.7	29632.8	29506.5	29521.6	29406.4	29362.4	29303.1	29343.7	29163.2	29285.8	29244.8	29227.6	29256.3	29256.3
583.327	57040.5	1035.3	31591.3	30095	29968.4	29767.8	29689.9	29586.6	29577.4	29658.5	29531.3	29472	29468.5	29479.9	29269.5	29367.1	29421.6	29252	29252
583.569	57120.2	1035.76	31577.9	30237.2	29780.7	29807.8	29747.5	29551.2	29498.8	29537.8	29462.3	29429.2	29497.7	29361.5	29471.8	29526.9	29419.1	29390.5	29390.5
583.811	57109.9	1030.9	31680.3	30172.8	29983.9	29815.9	29683.2	29700.7	29705	29600.7	29592.3	29506.9	29431.7	29376.8	29473.3	29415	29404.9	29394.1	29394.1
584.053	56905.4	1044.5	31659.9	30195.5	29936.5	29612.7	29687.7	29581.8	29571.7	29535.1	29441.4	29440.1	29576.7	29423.5	29399	29321.6	29347.3	29307.1	29307.1
584.295	56971.6	1040.16	31685.4	30255.7	29867.8	29720.7	29771.9	29652.6	29595.1	29532.8	29565.2	29451.2	29472.4	29473.2	29520.1	29267	29495.6	29411.5	29411.5
584.536	57205.2	1043.84	31901.7	30450.9	30100	30024.6	29946.7	29854.2	29852.8	29591.6	29702.4	29709.5	29581	29758.8	29592	29656.3	29621.5	29565.6	29565.6
584.778	56830.9	1041.9	31546.8	30270.2	29978.7	29889.7	29873	29642.2	29693.9	29597	29610	29651.2	29505	29432.5	29379.4	29384.1	29440.7	29486	29486
585.02	57065.4	1031.76	31756.8	30488.6	30231.8	29984.4	29954.8	29935.4	29847.3	29836.5	29785.7	29581.2	29731.8	29696.1	29640.1	29650.2	29594.6	29611	29611
585.261	56985.2	1034.14	31736.6	30384.9	30068.9	30102.9	29987	29751	29781.9	29800.3	29635.2	29667.8	29650.2	29615.5	29588	29658	29522.6	29512.9	29512.9
585.503	56861.4	1039.92	31675.2	30345.1	30026.8	29871.2	29749.8	29839.2	29719.3	29696.1	29692.3	29663.3	29528.8	29485.6	29587.3	29574.9	29493	29611.1	29611.1
585.744	57070.8	1036.24	31668.9	30364.9	30118.6	30004.3	29857.7	29836.4	29740.2	29673.5	29680	29838.3	29731.3	29690	29635.1	29683.3	29540.2	29560.7	29560.7
585.986	57011	1039.2	31654.7	30328.4	30105.4	29907.5	29818.6	29769.2	29812.2	29751.3	29635	29695.9	29798.9	29663	29567.2	29717.7	29652.6	29611.3	29611.3
586.227	57048.4	1044.48	31721.5	30426.9	30329.1	30044.6	29909.8	30005.9	29929.4	29866.6	29701.9	29776.8	29780.1	29783.7	29787.7	29773.7	29692.8	29800.6	29800.6
586.468	56743.5	1040.54	31692.6	30277.4	30165.1	29965.1	29827.4	29902.1	29792.9	29740.9	29865.4	29724.6	29740.5	29681.8	29619.7	29683.2	29638.4	29532.9	29532.9
586.71	56955.5	1038.46	31827.1	30541.6	30164	30068.8	29968.1	29950.1	30005.6	29939.6	29850.7	29836.8	29867.8	29843.3	29777.6	29715.9	29710.3	29724.8	29724.8
586.951	57022.2	1041.28	31923.5	30588.3	30362.4	30010.2	30102.7	29951.5	30092.6	29977	29804.8	30033.6	29912.6	29938.5	29839.8	29921.5	29789.5	29844.6	29844.6
587.192	56816.3	1036.26	31697.7	30394	30129.5	29987.5	30058.3	29874.5	29914.6	29825.8	29711.1	29754.1	29759.6	29666.8	29663.9	29553.6	29651.3	29631.1	29631.1
587.433	57027.4	1040.98	31821.5	30504.1	30201.7	30138.9	30041	29916.9	29878	29967.3	29895.7	29743.1	29823.8	29775.9	29869.1	29760.9	29630.4	29727.6	29727.6
587.674	57079.8	1030.88	31878.8	30691.9	30211.8	30121.1	30066.4	30038.5	29988.7	30009.4	29961.5	29936.3	29944.6	29957.4	29825.3	29983.8	29841.1	29734.4	29734.4
587.915	57031.7	1032.56	31839.7	30678.9	30266.1	30262.9	30154.8	29994.8	30025.6	29993	29966.4	29863	29845.8	29903.8	29848.3	29832.4	29839.1	29734.9	29734.9
588.156	57011.8	1039.2	31723.8	30464.8	30391.1	30211	30040.7	29851	30020	29816	29861.7	29767.3	29838.9	29851.3	29819.5	29717.8	29773.8	29690.2	29690.2
588.397	57185.8	1038.94	31852.2	30704.1	30380.7	30172.6	30151.9	30036.4	30054.6	30059.4	30070.9	29965.9	29917.8	29915.4	29913.6	29884.7	29914.4	29847.7	29847.7
588.638	57027.4	1033.5	31849.2	30511.1	30394.5	30187	30126.7	30160.5	30024.7	29960.6	29943.7	29932.4	29818.7	29950.2	29903	29784.2	29798.3	29663.5	29663.5
588.879	57029.9	1038.26	31928.5	30639.2	30290.2	30237.8	30134.3	30056	30066.3	30124.5	29992.8	29943.8	29957.3	29884.7	29884.5	29825.3	29782.6	29865.7	29865.7
589.119	57031.3	1042.4	31871.4	30607.8	30347.5	30240.6	30216.5	30139.1	30033.1	30127.5	30008.2	29964.1	29909.4	30040.9	29975.1	29997	29916.5	29972.9	29972.9
589.36	56912.2	1033.76	31827.1	30742.1	30349.7	30373.7	30129.4	30077.1	30110.4	30033.4	30041.9	30070.2	29912.5	29939.4	29987.6	29877.2	29911.9	29885.2	29885.2
589.601	56808.3	1036.16	31811.6	30645.7	30347.5	30234.4	30278.1	30182.5	30199.2	30032.5	30068.2	29987	30081.8	29931.3	29976.8	30078.8	29815.9	29756.5	29756.5
589.841	57084.7	1034.6	31960.3	30754	30568.1	30427.6	30383.6	30248.7	30353.4	30142.5	30190.2	30142.5	30097.2	30172	30194.1	30058.4	29951.6	30066.2	30066.2
590.082	56922.8	1033.06	31878.6	30642.8	30472.7	30335.4	30278.5	30131.6	30153.1	30026.3	30044.7	29946.7	30056.7	30187.1	29964.8	30083.4	29978	29810.8	29810.8
590.322	56989.8	1051.14	31979.9	30677.1	30503.1	30299	30303.2	30277.9	30196.6	30074.4	30163.3	30030.6	30021.9	30024.3	30159.7	29983.7	30137.7	29966.8	29966.8
590.563	57080.2	1042.4	31923.5	30860.3	30500.9	30387.3	30317.1	30231.6	30260.5	30200.6	30193.3	30154.7	30213	30161.1	30082.3	30053.4	29997.9	30066.2	30066.2
590.803	57030.4	1043.34	31973.6	30727.5	30539.1	30350.8	30179.8	30362.1	30144.4	30095.2	30132.9	30112.1	30187.9	30116.9	30111.5	30077.5	30018.2	30105.2	30105.2
591.043	56767.3	1036.78	31896.5	30678	30401	30204.9	30224.4	30100	30166.6	29970.1	30030	30138	30067.7	30058.5	29966.4	29985.8	29879	29937.5	29937.5
591.284	57019.5	1036.26	31902.2	30862.6	30659.1	30530	30390.4	30334.2	30293.1	30400.2	30166.4	30169.1	30142.9	30203.1	30150	30165	30173.4	30224.9	30224.9
591.524	57055.3	1043.86	31967.7	30812.5	30691.6	30468.8	30491.5	30316	30152.6	30250.4	30227.1	30253.6	30164.5	30161	30082.7	30208.4	30151.5	30100	30100
591.764	56915.1	1044.2	31886.3	30719	30567.9	30302.7	30203.2	30281.7	30140.4	30140.1	30003.5	30230.9	30073.6	30146.6	30067	30069	30088	30096.5	30096.5
592.004	56946.6	1039	31885.5	30804.3	30476.8	30404.1	30258.5	30254.1	30288.9	30115.8	30077.3	30192.3	30089.3	30031.7	30030.6	30108.3	29989.8	30019.5	30019.5
592.244	57264.7	1039.64	32047.6	30926.9	30968.5	30597.6	30482.6	30611.2	30515.3	30554.5	30366.1	30391.1	30430.4	30383.9	30328.5	30390.9	30372.1	30251.1	30251.1
592.484	56941	1041.6	31950.3	30839.5	30529.8	30463	30428	30251.9	30248.8	30351.7	30289.6	30263.7	30198.1	30191	30220.2	30128	30114.1	30218.8	30218.8
592.724	56942	1035.2	31965.7	30841.8	30687.6	30420.4	30401.5	30408.2	30299.3	30264.4	30270.5	30229.8	30112.5	30245.7	30219.7	30186	30123.6	30299.9	30299.9
592.964	57085.1	1041.36	31985.1	30846.1	30598.1	30553.7	30511	30441.2	30313	30422.8	30371.8	30279.4	30303.9	30287.6	30273.9	30309.6	30140.4	30183.2	30183.2
593.204	56932.8	1033.47	31950.6	30774.2	30746.2	30382.7	30447.8	30462.8	30320.3	30332	30459.8	30198.1	30390.6	30150	30152.7	30153.4	30191	30283.1	30283.1
593.444	56986.9	1041.14	31992.2	30967.6	30751.6	30738.4	30577.2	30594.8	30511.9	30531.5	30398.4	30426.6	30403.5	30313.5	30329.9	30246.3	30334.6	30295	30295
593.683	56887.7	1042.98	32084	30966.6	30688.1	30581.4	30510.6	30480.9	30497.5	30404.6	30433.2	30440.9	30361.1	30310.9	30358.2	30381.1	30443.6	30463.1	30463.1
593.923	56771.7	1042.1	32091.7	30964.9	30713.7	30469.3	30664.7	30564.4	30438.5	30357.3	30370.1	30358.2	30279.6	30361.9	30257.1	30316.4	30217.1	30175.4	30175.4
594.163	56677.8	1023.86	31988.6	30894.7	30611	30565.8	30451.5	30409.4	30328.9	30301.8	30323.7	30224	30155.4	30302.3	30172.8	30202.1	30177.1	30234.4	30234.4
594.402	56820.8	1032.4	32077.1	30972.7	30688	30605	30455.6	30441.5	30422.5	30416.3	30453.5	30291.3	30196.3	30289	30398.9	30137.2	30394.1	30290.6	30290.6
594.642	57009.7	1037.94	32023.8	31106.3	30670.8	30596.6	30679.9	30624.4	30578.1	30488.7	30488.9	30423.9	30458.4	30393.9	30392.1	30508.7	30445.7	30379	30379
594.881	56569	1042.54	31885.9	30856.1	30540.9	30407.6	30544.8	30352.9	30343	30285.7	30332.1	30152	30370.3	30253.7	30226.3	30131.3	30209.8	30116.1	30116.1
595.121	56787	1042.6	32076.1	31063.4	30730.4	30702.6	30711.4	30604.4	30550.9	30634.2	30382.6	30420.9	30513.3	30386.2	30358.5	30313.2	30410.8	30511.3	30511.3
595.36	56359.3	1037.56	32006.3	30901.2	30564.3	30580.7	30640.7	30544.9	30467.9	30326.6	30426.5	30380.8	30213.5	30316.6	30323.3	30237.6	30289.4	30300.5	30300.5
595.599	56424.7	1041.22	32060.2	30945.6	30711.1	30628.5	30686.9	30545.1	30454.2	30429.8	30501.4	30400	30455.3	30329.3	30391.4	30239.8	30345.2	30262.8	30262.8
595.839	56402.6	1037.82	31972.3	30977.5	30590.7	30615.1	30481.7	30419.4	30418.9	30460.6	30502.3	30404	30296.8	30290.2	30251.3	30412.7	30305.2	30370	30370
596.078	56346.7	1042.14	31989.2	30937.3	30770.6	30537.8	30598	30396.5	30506.6	30383.9	30344.1	30366.3	30419.8	30371.8	30336.4	30390.7	30263.5	30284.2	30284.2
596.317	56296.2	1044.62	31907	31068.7	30699.3	30600.9	30469.3	30459.5	30452.9	30459.8	30329.7	30463.2	30423.2	30386.2	30300.4	30346.5	30379.8	30316.3	30316.3
596.556	56317	1040.7	31937.1	30996.7	30549.6	30643.1	30488.6	30458.4	30341.7	30349	30465.5	30375.2	30370	30421.4	30344.7	30390	30278.2	30311.7	30311.7
596.795	56085.8	1041.16	31713.7	30872.5	30441.6	30408.9	30380.7	30468.7	30342.2	30270.6	30358.6	30209.8	30238.7	30286.8	30126.1	30129.7	30200.5	30059.3	30059.3
597.034	56044.2	1035.94	31796.4	30729.6	30673	30497.8	30481.3	30373	30383.6	30380	30268.8	30298.9	30309.4	30218.5	30321.8	30265.6	30252.7	30157.2	30157.2
597.273	55959.2	1043.94	31837	30838.2	30622.5	30609.8	30492.6	30480.3	30469.7	30446.5	30333.7	30413.9	30311.8	30354.5	30283.5	30207.8	30314	30416	30416
597.512	56142	1034.56	31966.3	31084.9	30941.3	30716.8	30606	30728.5	30658.6	30578.4	30493.6	30594	30460.1	30374.9	30401.6	30378.5	30418.4	30405.8	30405.8
597.751	55765.6	1047.18	31892.8	30803.2	30614.6	30514.9	30575.6	30365	30408.3	30306.4	30339.5	30451.6	30411.6	30323.1	30386.5	30314.5	30325.9	30239.5	30239.5
597.99	55746.3	1032.04	31911.1	30917.9	30724.1	30621	30636	30437.9	30403.6	30423.9	30476.5	30376.8	30371	30343.9	30372.7	30324.4	30324.8	30271.1	30271.1
598.228	55672	1050.18	31847.2	30948.2	30639.2	30519.2	30566.5	30420.2	30433.8	30326.4	30394.8	30315.4	30378.1	30364.1	30325.3	30284.3	30411.8	30280.2	30280.2
598.467	55700.7	1040.34	31876.3	30978.6	30750.5	30628.4	30566.3	30498.2	30537.1	30485.7	30453.3	30444.9	30380.1	30250.8	30489.3	30252.8	30296.4	30278.8	30278.8
598.706	55670.7	1038.14	31814	30936	30734.3	30529.9	30587.9	30564.7	30456.3	30343.5	30561	30343.9	30400	30508.9	30480.5	30252.5	30342.4	30340.4	30340.4
598.944	55256	1039.28	31620.2	30682	30525.6	30370.5	30337.1	30413.4	30269.5	30439.7	30396.8	30233.4	30273.9	30170.8	30280.6	30239.7	30167.2	30163.4	30163.4
599.183	55606.8	1039.32	31885.7	30990.9	30836	30781.7	30562	30643.4	30525.6	30509.7	30441.7	30520.5	30477.6	30516.2	30446	30540.9	30350.3	30480.7	30480.7
599.421	55481.6	1032.76	31813	31030.5	30728.5	30630.5	30612.5	30555.9	30458.2	30506.2	30465.9	30442.5	30449	30469.3	30342.5	30421	30299.9	30503.4	30503.4
599.66	55382.9	1035.16	31736.3	30961.8	30704.4	30690.2	30589.1	30580.2	30402.7	30429.2	30474.3	30412.7	30400.8	30353	30379.2	30301.2	30328.5	30356.2	30356.2
599.898	54986.2	1032.44	31690.1	30673.5	30488.3	30392.4	30462.2	30346.3	30450.5	30188.7	30220.8	30184.1	30109.4	30109.2	30064.6	30107.6	30190.6	30204.5	30204.5
600.136	55379.8	1038.2	31922.6	30904	30847.2	30659.6	30699.4	30602.7	30692.6	30600.9	30512.4	30493.3	30600	30390.4	30392.6	30409.3	30418.4	30463.9	30463.9
600.375	55087.5	1039.48	31752.7	30926.9	30764.6	30633.8	30549.5	30525	30537.3	30366.4	30483.3	30488.6	30418.3	30296.3	30356.9	30384.8	30245.4	30326.3	30326.3
600.613	55049	1028.7	31721.4	30838.3	30648.4	30716.9	30536.8	30574.6	30454.9	30393.2	30404.2	30362.1	30442.3	30224.1	30331.7	30247.3	30273	30324	30324
600.851	55059.1	1037.14	31692.7	30853.9	30684.2	30584.9	30407.8	30429.8	30508.7	30384.7	30449.3	30486	30304.4	30324	30244.6	30187.7	30340.2	30306.5	30306.5
601.089	54978.2	1035.64	31615.9	30764.2	30466.1	30412	30324.7	30246.9	30331.2	30334.4	30211.2	30257.9	30189	30355.1	30057.2	30146.2	30063.5	30161.6	30161.6
601.327	54932	1042.62	31531.6	30584.4	30579	30479.2	30322.5	30306.1	30361.9	30215.4	30109.3	30311.4	30333.5	30282.4	30234.3	30163.8	30058.5	30102.5	30102.5
601.565	54755.9	1036.52	31478.9	30608.2	30582.1	30602.1	30350	30268.5	30257.5	30135.6	30235.5	30275.6	30224.8	30206.9	30250.7	30204.9	30190.1	30126.6	30126.6
601.803	54790.1	1041.66	31531.5	30601.8	30557.3	30477.1	30261.1	30368.4	30335.4	30246.6	30266	30317.2	30064.3	30232.3	30253.2	30102.8	30200.5	30055.6	30055.6
602.041	54730.8	1030.58	31567.7	30824.3	30578.3	30405.3	30242.4	30409.5	30239.5	30239.3	30224.1	30350	30169.5	30265.2	30052.8	30165.2	30101	30104.3	30104.3
602.279	54477.6	1037.22	31398.7	30511.7	30224.5	30361.7	30169.7	30051.1	30094.8	30139.8	30168.3	30167.9	30084.7	29979	30069.5	30130.3	30006.2	30009.5	30009.5
602.516	54285.6	1029.48	31295.3	30432.1	30232.8	30130.3	30231.9	29988.2	30006.1	30040.1	30057	30053.9	30121.1	29853.9	29888.9	29919.7	29941.7	29867.2	29867.2
602.754	54336.8	1034.88	31303.9	30539.8	30428.4	30265.5	30238.2	30195.1	30216.3	30151.7	30009.6	30089.4	29986	29947.3	30031.1	29962.6	29980.1	29905.3	29905.3
602.992	54557.1	1039.12	31453.4	30701.9	30473.8	30383.8	30232.8	30301.1	30258.2	30266.2	30137.8	30187.2	30182.7	30137	30188.5	30128.2	30131.1	30142.3	30142.3
603.229	54359.2	1038.28	31282.1	30533.4	30381.7	30197.8	30140	30195.8	30117.7	30063.8	30136.3	30164.4	30135.9	29999.6	30004.8	30048	30043	29994.9	29994.9
603.467	54337.9	1044.44	31315.6	30600.9	30325.9	30152.1	30123.4	30124.6	30051.2	30042.9	30138.7	29954.2	29941.2	30018.4	29991.2	30038.5	29906.2	30054.3	30054.3
603.704	54050.7	1035.44	31100.3	30314.6	30122.2	29983.3	30242.6	30053.5	29990.8	29826.6	29870.8	29851.6	29821.3	29980.5	29881.1	29803.1	29847.6	29830.7	29830.7
603.942	53791.1	1037.4	31029.8	30208.4	30163	30011.2	30033.8	29927.7	29935.1	29925.9	29851.2	29822.9	29855.9	29864	29829.9	29870.4	29742.4	29778.4	29778.4
604.179	53754.5	1039.44	30986.3	30375.2	30232.7	30055.5	29879	30062.4	29930	29911.1	29816.7	29886.5	29860.2	29951.8	29783.3	29862.3	29850.5	29829.6	29829.6
604.417	53718.8	1041.58	30970.2	30267	29971.8	29954.7	30020.2	29843.8	29876.9	29823.9	29904.5	29845.3	29761.1	29845.5	29801.2	29774.3	29857.1	29733.1	29733.1
604.654	53347.8	1045.16	30937.8	30054.5	29964.9	29916.1	29952.7	29840.8	29873.3	29722.1	29705.4	29733.1	29576.4	29831.5	29616.9	29594.8	29617.1	29598.2	29598.2
604.891	53249.3	1041.68	30726.8	30113.8	29941	29773.6	29880.6	29766.1	29675.2	29678.1	29697.3	29701.9	29576	29595.1	29540.9	29641.4	29530.4	29608.1	29608.1
605.128	53178	1040.9	30904.7	30007.9	29911.6	29823.4	29863.4	29855.6	29753.6	29574.7	29683.4	29688.6	29595	29556.3	29587.3	29563.6	29594.3	29589.1	29589.1
605.366	53074.3	1041.24	30840.2	30147.2	29974.7	29919.7	29738.7	29719.9	29597.7	29624.9	29669.1	29683.5	29581.6	29615.6	29448.1	29496.1	29451.5	29467.2	29467.2
605.603	52953.9	1036.78	30622.5	30003.9	29785.1	29683.1	29629.9	29704.1	29510.3	29504.2	29548.1	29525.1	29521.9	29519.7	29544.4	29476.8	29512.7	29520.9	29520.9
605.84	52890.2	1035.04	30724.7	29936.6	29825.1	29805.6	29635.2	29680.1	29529.5	29530.4	29486.3	29525.4	29570.5	29446.9	29585	29540.4	29408.6	29528	29528
606.077	52871.3	1039.04	30787.2	30032	29936.4	30012.7	29722.7	29753.7	29717.7	29696.4	29564.3	29481.6	29515.5	29607.9	29519.5	29423.1	29484	29452.5	29452.5
606.314	52726.3	1041.64	30645.8	29989.5	29855.1	29662.4	29584.7	29614.9	29590.4	29616.9	29482.5	29425.3	29494.9	29409.2	29416.5	29444.3	29421.5	29418	29418
606.55	52451.2	1034.64	30449.7	29703.5	29552.6	29519.8	29535	29417.6	29199.1	29284.2	29333.4	29256.5	29350.3	29350.4	29205.8	29157.3	29235.3	29121.2	29121.2
606.787	52539	1029.6	30429.8	29646.8	29498.1	29475.1	29387.1	29357.1	29376.9	29273.2	29336.8	29186	29223.7	29240.1	29246.8	29296.7	29143.6	29251.3	29251.3
607.024	52127.1	1038.78	30197.1	29381.2	29323.4	29211.6	29240.8	29148.8	29138	29054	29035.1	29055.1	29059.5	29029.8	29011	28936.8	29046.6	29002.8	29002.8
607.261	52442.3	1038.92	30404.3	29624.4	29568.1	29457.5	29414.6	29318.9	29337.1	29239.2	29172.1	29290.6	29189.2	29239.5	29155.1	29158.7	29211.2	29204.3	29204.3
607.497	51833.8	1046.84	29931	29197.8	29205.8	29094.6	29003.4	28968.9	28937.6	28930.7	29014.1	28927.8	28951.2	28860.6	28776.2	28802.2	28784.5	28838.5	28838.5
607.734	51895.5	1048.52	29999.3	29486.9	29196	29281.5	29320.2	29167.9	29024.5	29045.6	29034.2	28976.7	29097.2	28978.3	29055.4	29108.5	28969.1	28977.2	28977.2
607.971	51579.1	1034.34	29888.1	29225.5	29181.8	29168.2	29057.1	28868.5	28854.1	28933.3	28934.2	28921.9	28887.7	28840.4	28888.3	28894.7	28807.6	28802	28802
608.207	51556.7	1038.08	29971.5	29386.1	29170.9	29127.4	29182	29034.6	28824.1	29027.2	28949.8	28840	28917.5	28981.8	28806	28907	28812.6	28874.9	28874.9
608.443	51133.6	1040.9	29673.6	29123.3	29017.9	28850.7	28862.7	28905.3	28725.3	28627.3	28705.1	28608.8	28649.6	28543.6	28658.1	28550.4	28621.5	28676.6	28676.6
608.68	51036.4	1037.24	29735.6	29086.3	28863.5	28824.5	28789.3	28701.8	28724.4	28755.7	28758.7	28670.2	28643.2	28562.4	28491.8	28430.7	28520.5	28492.5	28492.5
608.916	50958.1	1037.4	29604.7	29032.6	28895	28682.3	28700.1	28653.9	28733.4	28547.3	28474.8	28615.8	28540.4	28620.4	28458.1	28463.6	28633.9	28512.3	28512.3
609.153	51157	1043.04	29739.5	28942.3	28830.3	28913.1	28705.4	28687.5	28636.3	28837.1	28723.9	28757	28611.1	28663.8	28658.7	28561	28560.3	28501.8	28501.8
609.389	50645.8	1041.78	29333.1	28665.4	28524.9	28635	28518.9	28510.2	28508.7	28463.3	28376	28379.1	28315.6	28400.8	28273.6	28295.5	28324.2	28340.6	28340.6
609.625	50453.8	1038.22	29284.5	28710.7	28562.7	28542.5	28347.4	28421	28279.2	28444.1	28287.1	28346.1	28241.8	28260.1	28252	28243	28311.9	28237.7	28237.7
609.861	50501.2	1040.4	29359.8	28781.7	28676	28423.6	28583.4	28511.1	28485.7	28387.2	28276.5	28268.6	28284.1	28319.9	28307.4	28265.6	28344.7	28203.9	28203.9
610.097	50176.3	1044.28	29189.7	28418.8	28411.3	28388.1	28302.9	28176.9	28271.5	28060.2	28250.6	28078.7	28105.6	27994.1	28057.1	28080.6	28087.8	28095	28095
610.333	50189.8	1048.98	29108.3	28543	28297.2	28273.8	28306.3	28154.4	28169.1	28080.9	28146.1	28106	28062.5	28084.5	27958.9	27964.6	27964.3	27935.2	27935.2
610.569	50055.2	1041.06	28963.7	28397.8	28197.5	28161.9	28144.9	28002.3	28038.6	28039.3	27925.1	27880.5	27960.4	28085	27999.7	27959.3	27872.7	27975.5	27975.5
610.805	49745	1039.14	28768	28260.1	27990.6	28013.9	27970.6	27997	27933.3	27923.4	27877.4	27781.5	27824.8	27825.4	27826.6	27805.7	27841.1	27700.1	27700.1
611.041	49607	1022.66	28734.5	28186.6	28050.6	27919.9	27893.5	27883.9	27893	27733.8	27838.9	27822.2	27840	27848.8	27766.2	27739.2	27806.6	27855.5	27855.5
611.277	49611.7	1044.58	28743.9	28133.5	28042.5	27900.5	27915.3	27813.8	27892.7	27788.7	27713.4	27780.8	27779.4	27706.7	27655.8	27758.1	27682.6	27675.9	27675.9
611.512	49250.6	1031.26	28530.2	27865.2	27829.5	27742	27732.7	27704.5	27489.9	27565.2	27553.5	27495.5	27400.6	27443.8	27686.3	27625	27533.3	27516	27516
611.748	49265.4	1030.3	28461.6	27897.8	27771.9	27605.1	27579.1	27545.5	27651.2	27420.1	27512.4	27458.6	27419.6	27506.7	27571.5	27481.4	27499.3	27450.4	27450.4
611.984	48887.5	1041.74	28223.4	27587.3	27524.7	27413.4	27400.3	27319	27379.1	27106.3	27281.6	27305	27270.4	27273.7	27265.4	27295.7	27304.8	27203.6	27203.6
612.219	48926.3	1036.26	28251.1	27561.9	27452.8	27404.9	27349.5	27370.3	27300.1	27401.4	27247.8	27323.7	27304.5	27288.5	27282.5	27192	27341.5	27246.1	27246.1
612.455	48398.4	1039.9	28014.3	27455.8	27224.1	27072.1	27280.2	27228.9	27137.7	27105.1	26981.3	26928	26979.5	27054.4	26978.5	27062.4	27037.4	26930.5	26930.5
612.69	48310.9	1037.74	27967	27380.3	27368	27236.4	27245.3	27348.9	27102.4	27240.7	27165.9	27040.8	27066.8	27066.4	27102.1	27194.9	27077.9	26958.9	26958.9
612.926	48344.6	1036	27995.1	27451.1	27369.4	27284.9	27306.9	27358.9	27256.4	27248.1	27224.4	27185.1	27140.8	27240.6	27231.3	27189.5	27119.3	26975.5	26975.5
613.161	47799	1036.46	27701.7	27102.9	27003	27084.5	26969.4	26949.4	26973.8	26791.7	26821.8	26813.9	26848.4	26792.2	26754.7	26876.6	26723.1	26787	26787
613.397	48001.5	1038.56	27757.5	27164.2	26992.4	27022.1	26967	26993	26933.9	26926.2	26813.5	26835.4	26878.6	26772.2	26800.9	26915.3	26827.5	26870.3	26870.3
613.632	47569.4	1041.54	27470.9	27089.2	26842.3	26816.5	26783	26718.9	26703.7	26651.9	26562.8	26635.4	26702.3	26527.8	26560.2	26558	26606.1	26608.7	26608.7
613.867	47444.2	1031.22	27400.5	26833.7	26773.6	26721.7	26603.9	26599.2	26543.4	26539.3	26484.8	26545.8	26570.4	26462.4	26574.1	26577	26521.4	26462.7	26462.7
614.102	47215.2	1040.16	27306.7	26724.9	26622.2	26490.8	26494.9	26473.7	26466.2	26328.2	26410.4	26414.2	26302	26444.7	26235.1	26374	26281.4	26382.5	26382.5
614.337	46914.6	1042.22	27104.5	26546.4	26469	26234.6	26306.4	26313.3	26117.4	26311.6	26274.8	26192.6	26171.8	26155	26180.2	26259.4	26163.4	26103.8	26103.8
614.572	46566.4	1036.7	26822.9	26391.9	26280.8	26216.1	26177.4	26116.1	26076.6	26189.1	26035.4	25982.8	26049.8	26086.8	25969.7	26028.5	25991.8	26049.9	26049.9
614.808	46578	1038.26	26925.4	26338.9	26312.4	26240.2	26237.5	26170	26134.1	26105.1	26131.6	25924	26076.2	26160.4	26009.8	26119.2	25998.1	26041.3	26041.3
615.042	46258.7	1031.98	26794.9	26280	26212.5	26232.1	26157	26082.5	26052.8	26001.2	25908.5	25949.5	25919.6	25974.5	25888.4	25895.2	25907	26035.7	26035.7
615.277	46079.4	1037.76	26638.5	26129.9	26051.6	25972.8	26053	25891.5	26006.4	25994	25939.2	25855.6	25845.4	25799.7	25806	25788.9	25832.6	25749.9	25749.9
615.512	46114.9	1037.78	26599.1	26108.4	26004.2	26000.9	25971.9	25906.8	25938.2	25805.4	25790.6	25915.2	25834.6	25774.5	25841.6	25777.6	25729.1	25756.9	25756.9
615.747	45529.6	1029.96	26242.4	25726.6	25576	25633	25551.1	25635.8	25558	25442.6	25483.7	25460.6	25457.4	25338	25395.9	25520.7	25332.9	25400.5	25400.5
615.982	45585	1023.5	26226.4	25782.6	25794.3	25584.1	25551.2	25509.6	25618.5	25493.2	25415.6	25395.7	25490.4	25421.6	25468.1	25467	25572.1	25429.6	25429.6
616.216	45404.7	1035.88	26153.8	25745.2	25582.9	25579.3	25403.8	25617.2	25657.4	25488	25443.9	25443.1	25517.3	25387.8	25436.1	25391.9	25487.3	25350	25350
616.451	45093.4	1031.7	26035.1	25565	25491.3	25486.3	25451.4	25438.6	25384.8	25339.5	25330.6	25277.1	25332.3	25270.8	25144	25421.7	25302	25310.2	25310.2
616.686	44743.4	1037.08	25830	25419.9	25331.6	25276.4	25175.6	25197.9	25140.8	25123.7	25116.7	25125.6	25076.5	25114.5	25019.4	25025.6	25111.6	25068.9	25068.9
616.92	44641.2	1036.32	25820	25374.4	25180.8	25028	25001	24981.8	25053.4	25034.1	24966.7	25045.3	25057.8	24981.7	24945	24891.1	24939.4	24950.5	24950.5
617.155	44460.3	1040.9	25685.4	25247.7	25183.7	25062.7	24959.5	25047.2	24996.6	24930.7	25031.3	24834.7	24815.3	24911.2	24837.4	24837.5	24921.3	24809.3	24809.3
617.389	44278	1029.26	25609.6	25005.7	24990.2	24930.8	24893.9	24912.1	24935.6	24821.2	24802.9	24758.2	24869	24706.7	24814	24585	24734.5	24650.6	24650.6
617.624	43965.2	1020.58	25397.3	24967.2	24770.3	24819.7	24618.5	24644.1	24560.5	24610.5	24644	24666.5	24600.8	24514.1	24539.8	24518.9	24436.3	24487.3	24487.3
617.858	43889.5	1032.44	25312	24876.5	24695	24633.6	24573.2	24632	24555	24596.3	24580	24492.8	24614.8	24512.6	24519.6	24589.9	24388.2	24469.6	24469.6
618.092	43579.1	1030.5	25047.3	24658.7	24671	24590.6	24509.6	24495	24402.7	24532.6	24551	24400.6	24392.1	24387.7	24320.9	24320.7	24261.4	24357.4	24357.4
618.326	43383.6	1044.3	25055.8	24616.5	24584.7	24538	24530.2	24382.9	24481.7	24504.3	24333.5	24353.8	24308.3	24451.3	24206.7	24273.9	24272.6	24178.2	24178.2
618.561	43225.4	1036.54	24904.2	24586.6	24590.3	24419.4	24410.6	24290.6	24236.7	24337.6	24217.5	24275.3	24338.9	24270.5	24169.6	24265.3	24201.2	24161.2	24161.2
618.795	42872.6	1038.48	24757.9	24309.8	24216.9	24230.2	24307.7	24062.9	24041.1	24016.6	24148.6	24025.5	24002.9	23957.5	23954	23953	24063.7	24026.6	24026.6
619.029	42716.4	1032.06	24676.9	24241.4	24104.7	24029.7	24092.4	24029.3	24065.2	23936.4	23994.2	23938.2	23897.8	23982.3	23904.6	23940.1	23942	23904.8	23904.8
619.263	42527.4	1036.58	24539.4	24164.5	23988.7	23972.4	23880.2	23907	23904.1	23918.1	23879.4	23859.4	23916.5	23875.2	23887.6	23812.4	23901	23825.2	23825.2
619.497	42313.9	1035.02	24397	23942.8	23895.9	23882.8	23876.1	23822.6	23739.7	23735.5	23709	23764.8	23720.6	23692.6	23720.1	23813.5	23728.9	23714.6	23714.6
619.731	42233.2	1039.76	24331.7	23966.1	23791	23759.4	23826	23724.7	23594.9	23666.3	23585.2	23642.9	23541.5	23641.3	23566.8	23491.2	23619	23680.1	23680.1
619.964	42071.9	1038.94	24310	23866.1	23707.9	23617.6	23747.5	23738	23750.9	23758.3	23726.7	23579.1	23694.8	23483.9	23508.4	23607.2	23628	23637.7	23637.7
620.198	41945.4	1039.64	24242.4	23724.6	23791.4	23531.6	23580.6	23611.5	23615.6	23564.1	23494.2	23479.9	23562.3	23492.9	23512	23578	23402.5	23479.6	23479.6
620.432	41581.6	1047.12	24026.2	23586.4	23559.4	23435.3	23395.9	23436.6	23402.5	23401.2	23383.1	23383.8	23278	23315.2	23329.5	23368	23262.2	23343.8	23343.8
620.666	41314.7	1038.22	23825.2	23465	23320.2	23366.4	23324	23260.8	23134.2	23118.7	23189.6	23193.8	23169.7	23104.2	23200.9	23126.3	23080.5	23180.1	23180.1
620.899	41196.8	1039.02	23748.1	23516.4	23360.8	23291.5	23321.4	23288.4	23278.7	23288.8	23250.8	23245	23195.1	23189	23090	23091	22979.2	22984.1	22984.1
621.133	41103.3	1043.52	23772	23366.5	23222.8	23220	23160.1	23075.1	22973.2	23125.1	23089.6	23146	23058.1	23000.9	22943.3	22957	22975.4	22991.5	22991.5
621.366	40933.7	1041.04	23718.2	23225.1	23136.6	22938.7	22986.2	23036.6	22987.6	22970.1	22981.3	23016.5	22926.6	22929.3	22874.6	22937.6	22849.4	22960.5	22960.5
621.6	40753.2	1031.42	23497.6	23066.7	23050.7	22941.4	22974	22942.9	22896	22914.6	22902.7	22881.1	22893.4	22859.8	22865.4	22757.8	22891.1	22764.1	22764.1
621.833	40573.2	1029.2	23426.8	23055.3	22976.8	22916.4	22894	22875.3	22778.1	22913.9	22861.9	22867.5	22919.1	22845.9	22880.7	22782.7	22844	22723.5	22723.5
622.067	40227.4	1038.56	23280.8	22969.4	22829.8	22725.8	22757.2	22745.4	22577.4	22767.9	22571.8	22689.4	22655.2	22606.6	22707.1	22635.8	22693.8	22665.8	22665.8
622.3	40143.8	1042.86	23143.4	22871.3	22817.8	22772.3	22610.2	22633.1	22615.3	22607	22515	22569.5	22585.8	22530.7	22550.5	22646.4	22529.2	22502	22502
622.533	40090.3	1039.58	23147.4	22712.3	22691.8	22611.9	22580.4	22592.2	22565.5	22517.3	22642.7	22576.3	22467.3	22512.5	22580.1	22407.5	22429.1	22559.3	22559.3
622.766	40056.6	1034.1	23121.5	22769.3	22627.2	22477.1	22507.3	22417.1	22531.3	22512.9	22432.1	22557.1	22432.2	22455.7	22452	22497.7	22346.6	22511.4	22511.4
623	39700.1	1034.64	22851.7	22429.6	22434.3	22335.5	22302.3	22434.1	22361.7	22258.9	22268.4	22262.7	22240.5	22278.5	22191.3	22207.9	22226	22276.9	22276.9
623.233	39479.6	1039.52	22810.3	22346.3	22256.5	22353.2	22277.7	22203.5	22191.4	22190.2	22152.4	22092	22118.3	22142.8	22201.9	22118.6	22058.2	22133.6	22133.6
623.466	39332.2	1035.24	22645.7	22309	22344.1	22262.9	22175.5	22113.9	22067.7	22101.9	22068.8	21994	21957.9	22123.3	22094.5	22106.1	22044.1	22137.2	22137.2
623.699	39246.6	1047.64	22592.6	22134.3	22189.2	22157	22057.2	22025	22075.1	22048.9	22030.3	22053.2	22095.9	21952.9	21933.9	21944.8	21991.7	22021.5	22021.5
623.932	39087.6	1034.16	22548.9	22199.8	22145	21998.3	22055	21932.7	22017.9	22019.3	21977.6	21992.4	22046.7	21923.9	21969.8	21901.3	22055.6	21881.4	21881.4
624.165	39018.3	1041.22	22488	22107.8	22120.8	21935.2	21959	21892.2	21856.9	21933.8	21919.4	21881.4	21952.2	22017.9	21962.2	21845.6	22009.7	21743.8	21743.8
624.397	38500.5	1036.02	22187.9	21935.3	21747.4	21716	21716.2	21638.9	21616.3	21692.1	21680.5	21632.8	21668.1	21626	21637.3	21558.9	21621.7	21592.5	21592.5
624.63	38696.5	1043.44	22267.1	21893.4	21914.9	21729.1	21714.2	21778	21776.8	21649.9	21795.3	21766.7	21776.4	21668.2	21744.7	21655	21697.6	21665.2	21665.2
624.863	38536.5	1032.16	22248.5	21796.2	21800.9	21684.1	21711.5	21661.4	21580.9	21609.9	21589.6	21717.6	21548.2	21523.7	21548.5	21480.5	21539.1	21574.5	21574.5
625.096	38222.6	1038.92	21965.8	21592.7	21492.7	21553.5	21557.7	21538.2	21392.1	21513.4	21421.4	21462	21483.6	21403.4	21352	21457.7	21370.6	21478.8	21478.8
625.328	38037.9	1044.16	21937.4	21670.5	21640.1	21507.7	21352.9	21468.4	21408.7	21390.4	21317	21430.1	21380.5	21341.3	21436.3	21258.9	21281.4	21359.9	21359.9
625.561	37685.6	1029.11	21737.3	21274.9	21285.1	21325.5	21327.1	21239.1	21191.1	21131.7	21166.4	21209.5	21132.7	21163.9	21122.1	21173.4	21206.7	21117.3	21117.3
625.793	37762.7	1035.2	21788.6	21542.4	21297.7	21400.9	21247.8	21277.4	21294.5	21225.8	21276.8	21228.4	21271.4	21331	21119.6	21115	21142.7	21185.2	21185.2
626.026	37477.1	1038.28	21560.7	21121.2	21174.6	21070.9	21140.5	21145.5	21093.4	21026.8	20990.3	20980.1	21022.5	20990.8	20949.7	21001.9	20957.5	20973.7	20973.7
626.258	37481.9	1032.72	21550.3	21228.6	21234.4	21153.7	21124.7	21074.8	21115.4	21050.4	21005.6	21099.3	21066.6	21077	20990.3	21042.6	21083.6	21007.5	21007.5
626.49	37486.8	1038.6	21539.8	21167	21126.3	21091.3	21126.1	20997.1	21086.4	21135.3	21096.5	21049.3	21014.7	21071.4	21072.5	20973.4	20994.9	21052.5	21052.5
626.723	36998.7	1039.28	21247	20942.5	20900.7	20904.3	20904.2	20830.1	20852.9	20781.3	20703.9	20687.7	20731.4	20792.8	20709.5	20713.7	20791.1	20852	20852
626.955	37044.1	1032.2	21197.4	20992.2	20880	20898.3	20817.6	20768.2	20804.2	20822.4	20757.2	20800	20747.6	20659.3	20787.4	20733.4	20730.8	20660.9	20660.9
627.187	36775.5	1040.82	21108.8	20797.2	20812.2	20704	20693.1	20629.8	20640.4	20618	20567.8	20555.4	20710.6	20687.4	20618.6	20618.6	20625.2	20637.2	20637.2
627.419	36622.3	1029.8	21157.3	20754.7	20776.6	20619.1	20705.1	20671.7	20618.7	20597	20585.5	20623.3	20533.5	20579.4	20505.9	20570.2	20457.9	20500.3	20500.3
627.651	36528	1033.42	21029.5	20755.8	20767.7	20717.2	20686.2	20664.5	20599.9	20469.5	20432.7	20432.7	20535.3	20465.1	20458.5	20473.9	20421.7	20471.5	20471.5
627.884	36238.8	1028.78	20823.2	20598.3	20478.7	20470.3	20439.1	20341.1	20388.6	20396.2	20370.1	20383.7	20367.3	20328	20377.2	20312.7	20270.4	20287.3	20287.3
628.115	36164	1040.04	20787.7	20536.4	20477.2	20422	20374.6	20330	20252.6	20316	20370.2	20384.2	20370.3	20420	20364.6	20255.5	20322.8	20373	20373
628.347	35979.4	1040.94	20656.2	20505.5	20436.1	20414.7	20388.4	20299.9	20338.7	20278.9	20340.7	20314.6	20328.9	20250.3	20233.7	20262.1	20274.5	20239.5	20239.5
628.579	35781.9	1034.14	20587.9	20292.6	20313.8	20213.8	20227.6	20188.2	20293.6	20203.6	20168.6	20196.4	20069.6	20093.4	20232.8	20167.6	20105.3	20159.6	20159.6
628.811	35582.4	1041.16	20551.5	20283.1	20275	20200	20077.8	20154.4	20178.8	20041	20137.4	20070.2	20062.9	20072.9	20051.8	20102.4	20122	20075.6	20075.6
629.043	35522.7	1040.72	20545	20134.4	20183	20187	20123.3	20110.8	20063.2	20109.9	20080.5	20124	20123.7	19958.4	19984.5	20025.8	19986.8	20053.6	20053.6
629.275	35448	1040.3	20435.5	20241.8	20103.1	20052.1	20082.3	20136.2	20059.9	19990.4	19983.7	19944.5	19972.7	20025.1	20022.7	19990.9	19874.9	19842.5	19842.5
629.506	35254	1042.58	20260	20109.1	19924.5	19946.3	19903.3	19951.5	19855.3	19866.5	19941	19847.8	19876	19758.5	19712.6	19902	19850.5	19852.3	19852.3
629.738	34995.1	1035.32	20182.9	19849.2	19751.9	19829	19787.2	19779.8	19831.6	19814.4	19729.6	19718.2	19683.3	19707.8	19749	19756	19744.4	19750.3	19750.3
629.969	35022.3	1031.08	20244.1	19835	19954.4	19799	19812.8	19701.2	19705.8	19768	19792.6	19715.8	19662.1	19733.1	19742.6	19735.6	19666.6	19704	19704
630.201	34601.3	1036.48	20021.1	19808.2	19707.4	19643.4	19650.2	19638.4	19605.2	19552.4	19633	19606.6	19561.4	19528.6	19564.6	19470.2	19596.2	19611.2	19611.2
630.432	34479.8	1043.32	19923.9	19695.5	19536.6	19562.3	19607.8	19605.7	19533.6	19563.3	19474.1	19517.1	19455.1	19529.9	19503.7	19408.6	19464.9	19463.9	19463.9
630.664	34493.7	1034.74	19999.8	19692.8	19646.3	19547.7	19600.1	19681.1	19554.3	19552.5	19604.5	19521.5	19475.9	19465.1	19378.5	19499.1	19501.5	19392.9	19392.9
630.895	34090	1031.46	19749.6	19487.3	19393.9	19442.3	19351.5	19387.5	19383.8	19284.6	19346.7	19158.3	19318.7	19371	19254.3	19324.5	19324.1	19287.3	19287.3
631.126	34203.7	1023.46	19852.3	19651.2	19552.4	19546.6	19459.8	19507.8	19521.4	19446.1	19421.4	19417.2	19389.8	19425	19401.2	19412.8	19380.4	19400.8	19400.8
631.358	34022	1037.84	19741.5	19537.5	19449.5	19441.6	19464.1	19329.6	19275.2	19360.2	19361.6	19318.6	19330.2	19275.8	19251.4	19305.4	19323.2	19279.2	19279.2
631.589	33897.6	1029.53	19695.8	19435.9	19438.2	19265	19259.9	19173.6	19252.8	19214	19223.1	19232	19339.2	19286.9	19177.4	19305.4	19190	19225.2	19225.2
631.82	33656	1027.4	19539.1	19253.2	19311.2	19201.4	19067.6	19147.6	19123.2	18992.6	19066.4	19061.4	19048.6	19093.2	19069	18997.8	19001.3	19122.6	19122.6
632.051	33576.7	1032.34	19496.9	19261.1	19250.3	19062.3	19140.9	19009.7	19035.1	18960.5	19083.9	19049.9	19013.5	18993.5	18997.3	18902.1	18910.9	19005.7	19005.7
632.282	33392.6	1037.44	19347.5	19064.8	19013.5	18923.5	18960.2	18838.8	18971.1	18884.8	18886.8	18839	18853.6	18897.8	18902.2	18883	18884.4	18815.3	18815.3
632.513	33144.5	1038.78	19252.1	18976.1	18879.1	18935.1	18892.3	18888.1	18867.9	18827.7	18854.6	18774.6	18785.3	18852.7	18826.5	18698.9	18762.5	18747.5	18747.5
632.744	33121.1	1042	19202.8	18962.6	18991	18870.2	18926.6	18847.4	18847.6	18824.1	18722.1	18836.4	18876.2	18894.6	18827.8	18750	18766	18758.4	18758.4
632.975	32917.1	1050.88	19216.6	18783	18855.6	18729.6	18818.6	18776	18758.6	18710.6	18702.4	18694.6	18647.6	18739.5	18705.4	18703.2	18741.5	18641.6	18641.6
633.206	32755.6	1033.32	19128.2	18897.7	18841.9	18791.8	18781.3	18727.3	18750.2	18766.9	18661.7	18693.3	18676.3	18723.9	18716.1	18658.3	18610.7	18613.9	18613.9
633.436	32663.9	1049.42	19139.1	18780.8	18775	18727.2	18726.4	18802.4	18678.2	18622.2	18732	18638.8	18627	18756.2	18625.8	18640.7	18677.8	18632.4	18632.4
633.667	32526.1	1037.02	19037.1	18714.5	18588.3	18626.1	18697.1	18612.7	18541.9	18469.7	18594.5	18520.7	18490.1	18560.7	18470.3	18525.7	18481.1	18495.3	18495.3
633.898	32210.2	1035.32	18849.8	18573	18439.6	18493.1	18432.6	18411	18391.4	18429.8	18387.4	18355.4	18336.2	18356.2	18333.7	18342.1	18406.2	18254	18254
634.128	32238	1026.34	18797.2	18525.1	18382.7	18532.9	18408.5	18460.2	18445.3	18364.1	18297.5	18352.3	18264.8	18408.9	18303.9	18258.5	18350.1	18259.1	18259.1
634.359	32023.8	1034.34	18604.7	18298.5	18253.8	18324.4	18292.9	18175.1	18169.5	18222.9	18317.6	18219.1	18226.1	18203.7	18265	18140.3	18187.7	18091.1	18091.1
634.589	32126.4	1033.4	18612.5	18442.1	18233.1	18436.1	18353.7	18307.5	18217.3	18367.3	18262.9	18340.7	18324.1	18232.3	18281.3	18160.7	18211.7	18217.9	18217.9
634.82	31841.2	1028.58	18542.6	18307.8	18276	18252.2	18193.6	18191	18163.2	18184.2	18208.6	18119.8	18177	18218.8	18155.2	18131.8	18033.8	18163	18163
635.05	31820.1	1040.9	18488.2	18287.7	18206.1	18221.3	18217.1	18140.7	18166.9	18062.7	18192.1	18108.5	18078.8	18118.9	18094.1	18153	18074.1	18143.5	18143.5
635.281	31443.9	1037.24	18283.4	18003.8	18042	18001.4	17989.1	17915.4	17904.4	17934.8	17912.4	17902.6	17900.4	17893	17853.9	17890	17803.6	17862.9	17862.9
635.511	31474.9	1037.18	18368.8	17978	18024	17905	18124.6	18098.8	17939	17952.5	17903.7	17900.2	17855.2	17884.6	17836.4	17954.8	17860.1	17877.8	17877.8
635.741	31313	1041.58	18267.6	17993.6	17975.8	17870.7	17864.2	17879.2	18034.9	17843.2	17813.4	17877.8	17863.8	17839.6	17854	17813.2	17779.2	17808.7	17808.7
635.971	31123.1	1032.68	18170.4	17905	17863.6	17834.2	17762.4	17802.4	17704	17772	17694.6	17825.8	17860.2	17873.4	17767.8	17784.2	17743.2	17799.8	17799.8
636.201	30925.9	1026.12	18012.5	17846.7	17813.4	17671.5	17748.7	17665.7	17624.9	17638.1	17764.5	17695.4	17639.9	17675.5	17643.9	17669.7	17512.3	17709.7	17709.7
636.432	30976	1038.54	18059.9	17748.9	17763.7	17762.1	17780.9	17691.1	17705.9	17719.3	17703.3	17769.1	17713.3	17740.3	17701.1	17772.3	17586.1	17645.9	17645.9
636.662	30710.8	1043.04	17957.6	17701	17579.7	17607.7	17579.1	17459.1	17432.5	17633	17526.9	17520.1	17587.5	17499.3	17454.5	17463.3	17503.5	17516.3	17516.3
636.891	30475	1044.38	17796.2	17602.2	17566.4	17576.4	17453.2	17550.2	17445.8	17411.6	17508.4	17385.8	17443.5	17366.4	17392.2	17396.2	17362.4	17287.2	17287.2
637.121	30550.2	1036.22	17828.5	17577.4	17594.4	17536	17482.6	17552.8	17522.4	17499.2	17439.6	17525.6	17508.4	17516.6	17394.8	17496.6	17508.2	17475	17475
637.351	30157.7	1034.22	17651.5	17355.5	17414.1	17400.7	17338.3	17379.7	17384.5	17282.3	17300.3	17362.5	17277.7	17271.7	17274.9	17160.1	17276.3	17261.1	17261.1
637.581	30040.9	1035.28	17615.5	17354.4	17280.8	17317.1	17233.8	17307.8	17343.8	17086.2	17160.2	17233.8	17284.6	17212.6	17161.4	17221.4	17202.2	17193	17193
637.811	30071.6	1040.44	17511	17450.6	17327.8	17205.2	17279.2	17189	17250.6	17296	17239.6	17176.8	17121	17316.3	17134	17251.4	17169.4	17215.6	17215.6
638.041	29652.7	1037.76	17277.6	17132	17057.8	17084.8	17083.3	16935.4	17046.5	16972.6	16957.2	16992.6	16942.4	16962.2	16965.8	16935.4	16946	16960.6	16960.6
638.27	29749.7	1029.64	17334.2	17164.3	17068.5	17081.5	17097.9	17085.3	17100.9	17001.1	16994.7	17008.9	17045.7	16929.9	16968.9	17004.1	17047.1	17000.9	17000.9
638.5	29512.5	1030.58	17247.6	16978.7	16975.1	17127.9	16980.1	16919.5	16905.5	16885.9	16890.3	16877.1	16795.1	16852.1	16891.1	16901.3	16920.7	16813.1	16813.1
638.729	29430.3	1035.2	17200	16997.5	16959.5	16914.7	16898.9	16897.1	16860.7	16890.7	16800.7	16853.7	16812.1	16861.3	16854.3	16870.9	16807.7	16825.9	16825.9
638.959	29278.7	1032.26	17139.1	16935.2	16953.4	16880.4	16880.6	16871.9	16743	16811	16888.9	16846.4	16761	16799.2	16793	16817.6	16712.8	16846.4	16846.4
639.188	29061.5	1043.62	17010.3	16767.7	16746.3	16784.9	16817.5	16796.1	16685.7	16735.5	16703.9	16553.9	16652.5	16674.7	16676.3	16719.9	16653.9	16653.5	16653.5
639.418	28983.5	1035.74	16961.9	16831.4	16757.2	16756	16736.2	16647.4	16651.6	16627.2	16597.2	16551.8	16579	16577.2	16646.2	16622.6	16624.4	16676.4	16676.4
639.647	28847	1038.6	16864.8	16666	16752.3	16664.5	16615	16623.5	16522.5	16546.3	16544	16448.1	16506.1	16573.5	16526.3	16532	16602.3	16522.3	16522.3
639.876	28597.3	1036.82	16764.3	16589	16549.8	16489.5	16445	16469.2	16478.4	16444.4	16456.2	16471.8	16392.7	16397.4	16394.4	16299	16442	16360.2	16360.2
640.105	28560.3	1030.72	16778.4	16556.5	16450.5	16413.9	16474.7	16366.1	16419.9	16405.5	16505.1	16417.5	16436.1	16311.9	16308.1	16410.9	16377.3	16392.7	16392.7
640.335	28452.7	1037.32	16677.4	16454.6	16412.8	16473	16387	16385.6	16355.4	16276.4	16364	16347.2	16364.8	16369.2	16309.2	16375.3	16372.4	16340.8	16340.8
640.564	28276	1034.8	16552.3	16352.7	16226.1	16387.9	16322.3	16243.5	16219.9	16214.9	16128.3	16151.1	16140.3	16252.5	16228.3	16145.7	16237.5	16171.1	16171.1
640.793	28238.6	1034.24	16491.7	16335.7	16234.3	16204.8	16254.8	16270.5	16218.7	16120.5	16269	16109.8	16132.3	16137.8	16199.7	16055.3	16260.5	16208.7	16208.7
641.022	27961.3	1040.06	16390.6	16135.9	16077.7	16147.6	16116.3	16072.7	16108.9	16037.9	16105.9	16101.5	16075.5	16006.4	16038.7	16095.3	16062.7	16020.9	16020.9
641.251	27943.2	1038.1	16375	16202.4	16177.2	16154.4	16090.8	16093.7	16117.2	16094.4	16066.6	16142.6	16140.2	16138	16063.2	16010	16023.4	15982.8	15982.8
641.48	27841.8	1031.16	16272.6	16168.2	16096	16053	16000.2	15947.2	16034.8	15987.6	15967.8	15962.8	15922	16002.4	16000.6	15907.6	15939.5	16047.4	16047.4
641.708	27578.8	1050.46	16182.9	15927.4	15955.7	15859.9	15820.5	15951.9	15896.5	15809.3	15803.9	15859.5	15853.9	15836.7	15875.3	15944.7	15816.5	15835.5	15835.5
641.937	27558.6	1036.1	16155.7	15918.7	16005.9	15867.5	15888.9	15908.7	15818.1	15905.5	15849.7	15869.9	15892.7	15905.9	15804.1	15867.9	15853.9	15810.1	15810.1
642.166	27259.4	1040.56	15983.8	15870.1	15849.5	15840.9	15688.5	15699.7	15790.7	15695.5	15716.1	15714.1	15687.3	15725.2	15789.9	15639.3	15619.3	15680.3	15680.3
642.395	27333.1	1030.76	16032.5	15802.8	15808.6	15776.2	15823.4	15666	15753.6	15719	15709.8	15671.8	15649.2	15718.8	15611	15675.1	15708.2	15658	15658
642.623	27021.3	1028.88	15862.5	15646.7	15598.9	15485.4	15713.3	15566.3	15613.3	15608.1	15590.7	15493.1	15543.7	15601.7	15608.1	15563.1	15547.5	15481.9	15481.9
642.852	26924.1	1029.14	15704.6	15643	15494.8	15522.6	15488.6	15474.8	15489.8	15440.8	15464.2	15459.2	15482.8	15298	15454.6	15402.2	15297	15495.8	15495.8
643.08	26961.8	1031.66	15728.6	15695.2	15494.3	15464.8	15476.6	15435.4	15471.6	15430.6	15357.6	15465	15460.4	15357.6	15359	15357	15359.4	15440.4	15440.4
643.309	26746.1	1039.62	15565.5	15457.5	15371.9	15408.3	15293.3	15383.9	15321.7	15239.7	15232.3	15226.1	15273.3	15276.3	15247.1	15211.5	15206.3	15260.1	15260.1
643.537	26576.3	1039.8	15531.3	15302	15278.6	15253	15263.6	15196.8	15237.2	15229	15087	15183.2	15148.8	15098.6	15221.8	15117.2	15090.2	15041.2	15041.2
643.766	26581.6	1041.4	15493	15362.4	15293.8	15214	15214	15175.6	15215.8	15222.6	15200.6	15224.1	15145.6	15125.4	15154.6	15189.2	15239.6	15070	15070
643.994	26197.5	1036.56	15335.6	15144.9	15191.3	15113.3	15101.1	15080.7	15101.9	15006.3	15032.9	15058.7	15047.7	15001.5	15019.5	15030.8	14947.9	14956.7	14956.7
644.222	26038.4	1032.46	15274.8	15138.5	15094.3	15141.3	15025.1	15090.5	15018.5	15000.3	14910.1	14919.7	14930.1	15048.3	15004.5	14966.5	15005.7	14992.5	14992.5
644.45	26121.3	1037.08	15328.4	15081.8	15096.2	15048.2	15015.1	15077	15051.4	15092.8	15037.6	15092.2	15076.4	14996.4	15041	15015.8	15133.2	15000	15000
644.679	25887.4	1030	15127.5	15014.1	15000.3	14936.3	14946.1	15009.3	14928.1	14950.9	14884.5	14902.7	14896.3	14792.3	14873.3	14896.5	14833.1	14889.1	14889.1
644.907	25657.7	1042.32	15047.8	14843.6	14827.6	14857.4	14914.6	14819	14725.6	14877	14829.6	14824.6	14690.6	14771.6	14660.4	14764.8	14676.8	14699	14699
645.135	25601.5	1045.84	15057.7	14827.8	14873.6	14771.8	14814.6	14850.2	14854.4	14749	14707	14690.6	14709.4	14671	14722.6	14752.8	14672.8	14773.8	14773.8
645.363	25419.8	1039.64	14934.1	14783.5	14766.8	14785.1	14731.3	14745.9	14739.1	14659.5	14616.5	14622.3	14553.3	14643.7	14668.5	14588.5	14690.5	14718.7	14718.7
645.591	25402.6	1038.36	14820.1	14707.8	14705.4	14733.2	14660.2	14637.2	14656.2	14661	14635.8	14635.8	14596.4	14648.6	14649.8	14570.8	14623.6	14519	14519
645.819	25222.5	1037.88	14847.2	14665.3	14706.9	14691.3	14510.3	14613.3	14527.7	14641.5	14553.5	14552.5	14570.1	14604.3	14663.5	14481.7	14465.3	14517.7	14517.7
646.046	25037.3	1033.28	14719.2	14594	14511	14505.8	14402.2	14318.8	14404.8	14433	14428.8	14387.4	14454.6	14455	14444	14346.8	14395.2	14342.6	14342.6
646.274	24925.6	1035.12	14642.1	14495.8	14543	14435.6	14345.4	14467	14346.8	14349.6	14347.8	14395	14406.6	14355	14364.6	14311.6	14401.6	14328.8	14328.8
646.502	24779.3	1045.18	14563.2	14481.3	14375.7	14323.5	14329.3	14380	14342.1	14308.9	14339.1	14289.7	14374.9	14348.5	14203.4	14313.1	14247.7	14306.9	14306.9
646.73	24613.2	1033.26	14461.7	14342.5	14297.5	14312.3	14347.5	14277.7	14252.3	14331.1	14271.5	14246.5	14273.1	14201.9	14161.9	14223.1	14251.1	14219.9	14219.9
646.957	24477.1	1038.18	14438	14308.1	14268.2	14179.1	14231.1	14155.7	14187.9	14276.1	14170.3	14186.5	14180.3	14128.5	14100.9	14098.9	14142.5	14116.5	14116.5
647.185	24484.9	1033.36	14410.4	14301.2	14276.4	14134	14205	14203.2	14158	14187.8	14210.4	14151.6	14143.8	14211.6	14204.6	14079.6	14077.8	14038.8	14038.8
647.412	24297.8	1038.68	14328.7	14197.2	14148.6	14132.6	14082.6	14185.6	14044.8	14058	14093.4	14083.4	14142	14066.8	14063.2	14032.2	13983.4	14027.2	14027.2
647.64	24188.7	1030.94	14245.1	14066.7	14112.1	14039.1	14044.1	14065.3	13933.7	13998.3	13953.7	13947.1	13965.5	13994.3	14010.9	13920.5	14037.5	13944.4	13944.4
647.867	23831	1040.12	14017.5	13963.4	13848	13748.4	13783.2	13837	13774.6	13839.2	13798.8	13862.6	13729.6	13768.2	13713.6	13680.4	13691.8	13778.8	13778.8
648.094	23986.6	1030.8	14113.8	13956.1	13941.7	13863.9	13872.7	13845.9	13898.9	13929.7	13857.9	13864.3	13844.9	13851.3	13824.7	13800.5	13877.1	13870.3	13870.3
648.322	23678.1	1037.54	13911.1	13765.2	13747.4	13754.8	13807.8	13624	13735.2	13607.4	13630	13692.6	13612.6	13667.2	13696.8	13650.8	13654.4	13622	13622
648.549	23714.8	1040.9	13976.8	13808.4	13765.8	13803.8	13842.2	13691	13824.4	13671	13801.8	13674.2	13774.2	13594.6	13633	13688.2	13621.8	13708.6	13708.6
648.776	23442.7	1033.76	13838.6	13702	13614.4	13623.4	13497	13541.2	13603.8	13550	13512.2	13552.4	13511.8	13485	13521.2	13550.6	13507.8	13556.6	13556.6
649.003	23591	1022.82	13883.2	13700.5	13659.9	13683.1	13697.5	13611.5	13691.3	13614.5	13589.3	13603	13638.5	13667.3	13625.3	13585.5	13644.9	13536.1	13536.1
649.23	23427.9	1037.98	13755.8	13587.2	13642.3	13603.2	13585.6	13602.4	13618.8	13487.8	13564.2	13491.4	13585.4	13504.6	13570.4	13472.2	13551.6	13500.2	13500.2
649.457	23246.2	1035.32	13627.5	13533.9	13567.9	13506.5	13444.3	13423.7	13494.7	13457.1	13446.5	13457.6	13483.9	13393.3	13412.9	13454.7	13384.1	13395.7	13395.7
649.684	23046.4	1044.22	13542.2	13399.3	13383.9	13374.5	13341.7	13306.3	13343.3	13275.7	13356.9	13375.1	13335.7	13313.7	13289.1	13317.3	13321.9	13273.5	13273.5
649.911	22966.7	1037	13540.8	13432.5	13349.7	13302.9	13386.3	13374.3	13326.7	13264.9	13271.7	13319.7	13260.9	13335.5	13231.3	13228.5	13249.5	13237.7	13237.7
650.138	22664.5	1034.02	13421.8	13270.4	13131	13184.4	13170.2	13160	13134.6	13065.6	13161.8	13137	12984.2	13189.8	13134.8	13054	13152.6	13112	13112
650.365	22765.8	1040.48	13447.7	13401.1	13235.7	13290.7	13288.1	13158.1	13292.3	13227.1	13194.3	13236.5	13171.9	13209.9	13148.9	13209.1	13208.5	13197.9	13197.9
650.592	22492.7	1033.12	13286.6	13160.8	13106	13069.2	13099.2	13109	13022.4	13024.6	13116.4	12979	13051.2	13013.6	13050.4	13014.6	13000.2	13086.2	13086.2
650.819	22590.7	1031.1	13297	13111.3	13236.5	13078.7	13184.1	13145.7	13089.5	13081.1	13089.9	13174.7	13133.5	13063.9	13094.1	13033.9	13140.1	13047.9	13047.9
651.045	22379.7	1038.5	13178.8	12983.5	13033.9	12977.1	12989.7	12988.1	12924.1	12900.9	12980.8	12895.9	12979.5	12996.9	12950.3	12980.1	12853.1	12904.3	12904.3
651.272	22168.5	1038.64	13055.9	12888.1	12874.7	12914.9	12839.5	12888.3	12856.3	12789.1	12794.1	12698.1	12882.7	12838.5	12802.1	12730.9	12789.7	12805.3	12805.3
651.498	22167.7	1035.96	13039.6	12897.9	12865.9	12805.1	12884.5	12820.7	12817.5	12773.5	12859.7	12771.9	12751.1	12853.1	12668.7	12837.5	12763.3	12844.5	12844.5
651.725	22053.5	1037.86	12942	12833.1	12838.3	12851.7	12834.5	12770.1	12777.9	12653.3	12725.1	12761.3	12781.3	12700.5	12700.3	12739.7	12712.5	12810.5	12810.5
651.951	21820.5	1039.1	12853.9	12690.1	12726.5	12686.7	12691.7	12676.5	12570.3	12646.3	12626.7	12611.9	12581.5	12649.9	12575.5	12680.9	12557.9	12575.1	12575.1
652.178	21771.2	1034.36	12822.7	12688.1	12674.3	12615.3	12655.5	12577.1	12586.3	12657.9	12601.9	12517.7	12644.5	12534.7	12550.7	12615.9	12635.1	12550.5	12550.5
652.404	21604.3	1027.64	12712.5	12598.9	12591.9	12549.3	12548.7	12451.7	12520.5	12428.1	12538.7	12510.5	12470.9	12440.7	12479.3	12461.5	12546.7	12492.5	12492.5
652.63	21427.1	1036.44	12652.9	12391.8	12475.6	12454.2	12435	12424.2	12321.6	12411.4	12425	12449.6	12473.8	12386.6	12449.4	12385.4	12451	12424.2	12424.2
652.857	21300.9	1034.42	12602.3	12541.7	12507.3	12533.7	12529.5	12433.1	12431.1	12462.3	12380.3	12472.9	12393.9	12442.9	12414.3	12459.9	12392.1	12317.1	12317.1
653.083	21167.6	1036.32	12530.1	12460.8	12404.2	12360.4	12398	12349.8	12375	12313.4	12346.4	12340.4	12352.2	12270.4	12344.4	12292.4	12311.8	12280.2	12280.2
653.309	21054.8	1047.7	12528.3	12438.8	12308.4	12313.2	12312.8	12316.2	12233.6	12248.6	12193.8	12291.4	12328.8	12219.2	12274	12275.8	12304.2	12242	12242
653.535	20974.2	1030.98	12444.3	12318.1	12294.9	12327.9	12214.9	12277.9	12287.9	12265.3	12200.3	12166.7	12232.7	12169.5	12250.5	12199.3	12178.7	12148.9	12148.9
653.761	20785.7	1040.47	12395	12266.4	12263.4	12192.6	12189.8	12228	12196.4	12169.6	12113.2	12105.4	12184.2	12176.8	12241	12173.4	12142.8	12130	12130
653.987	20642	1042.8	12297.9	12135.8	12093.6	12158.8	12062.6	12201.6	11998	12011	12078.4	12063.4	12120	12023.2	12124	12043.2	12097	12081.4	12081.4
654.213	20615.2	1034.54	12311.1	12072.1	12087.5	12122.9	12061.9	12020.1	12053.7	12135.5	12131.9	12097.7	12083.7	12071.3	12018.1	12014.5	12047.9	12011.7	12011.7
654.439	20452.2	1037.48	12173.6	12045.2	12094	12022.2	11930.6	12017.8	12077.6	12018.4	12047	11911.2	11946.8	11921	11921.8	12021.2	11934.8	11948	11948
654.664	20253.1	1031.84	12078.4	11815.6	11857	11879.4	11821.2	11859.4	11861.8	11873	11791.2	11769.8	11873.6	11824	11843.4	11820.6	11834.2	11827.8	11827.8
654.89	20205.2	1027.3	12040.2	11909.8	11858.6	11842.2	11776.6	11840.6	11942.4	11786.8	11829.6	11823.4	11759.6	11827.2	11784.6	11820	11775.2	11787.4	11787.4
655.116	19999.9	1038.82	11842	11825.2	11749.6	11727.8	11694.2	11694.6	11610.2	11700	11708.8	11718.8	11717.4	11709	11674.6	11672	11694	11640.6	11640.6
655.342	19950.9	1034.38	11835.4	11683.6	11731.8	11691.2	11614.4	11673.4	11679.2	11740.4	11619.6	11627.4	11656.6	11630.2	11752	11686	11752	11620.2	11620.2
655.567	19763.2	1038	11726.1	11632.7	11630.9	11569.7	11531.3	11529.1	11604.1	11545.9	11591.9	11561.3	11462.3	11616.1	11550.9	11490.3	11541.5	11466.1	11466.1
655.793	19627	1041.72	11672.1	11482.5	11541.9	11472.3	11483.7	11452.5	11445.5	11507.3	11509.7	11521.1	11490.9	11480.5	11455.5	11414.7	11436.3	11480.5	11480.5
656.018	19463.1	1037.14	11540.6	11460.4	11460.8	11370.6	11390.2	11453.2	11456.2	11377.2	11433.8	11413.6	11341.2	11373.4	11364.6	11350.8	11350	11345.2	11345.2
656.244	19368.3	1033.7	11491.8	11425.4	11361	11405	11356.4	11461.2	11305.6	11354.4	11254.2	11278	11307	11300.6	11280.8	11350	11295.4	11260.2	11260.2
656.469	19193.5	1030.73	11412.2	11312.6	11237.8	11226	11320.4	11224.8	11259.6	11238.4	11246.4	11280	11174.2	11205.2	11154.6	11200.2	11121.6	11144	11144
656.694	19135	1037.42	11373.5	11210.2	11233.8	11252.6	11230	11199	11218.6	11185.4	11139.4	11135.2	11148	11211.2	11117.2	11222	11147.2	11134.4	11134.4
656.92	18995.9	1035.4	11289.1	11195	11150.6	11158	11182.4	11185.6	11271.2	11093.2	11073.2	11142	11135.8	11149.6	11248	11058.4	11087.2	11105.8	11105.8
657.145	18871.9	1042.26	11241.9	11083.5	11200.9	11108.9	11065.7	11025.3	11021.5	11067.1	11060.3	11104.9	11133.3	10998.9	11017.1	11044.5	11041.3	11047.5	11047.5
657.37	18798.5	1043.88	11219.8	11148.2	11138.6	11089.6	11033.6	11029.4	11084.2	11003.4	11028.4	11104.6	11051.4	10989.2	11007.6	11031.8	11017	10967.4	10967.4
657.595	18604.1	1033.76	11099.8	11014.2	10954.2	10964.6	10946.2	10986.8	10951.6	10925.4	10926.4	10903.4	10827	10888.6	10860.4	10835.4	10845.4	10850	10850
657.82	18563.5	1036.98	11025.7	11033.2	10982.6	10902.6	10941.8	10898.4	10941.2	10967.8	10963.4	10865.4	10808	10839.4	10815.4	10866.6	10859.4	10846.6	10846.6
658.045	18392.6	1030.43	10965	10803.4	10841.6	10813.8	10815.4	10844.6	10743.2	10748	10827.6	10768.2	10735.4	10738.6	10783.8	10707.2	10814.2	10750	10750
658.27	18340.8	1030.32	10853.4	10844.1	10813.1	10779.3	10697.5	10765.1	10760.9	10686.5	10792.1	10713.9	10748.9	10717.7	10751.9	10722.3	10724.5	10734.3	10734.3
658.495	18089.7	1032	10773.3	10736.7	10658.7	10687.5	10622.5	10717.5	10616.9	10571.1	10672.3	10642.3	10591.5	10544.7	10681.7	10639.3	10612.1	10565.3	10565.3
658.72	18043.5	1032.94	10794.4	10589.5	10684.5	10687.5	10555.9	10604.9	10557.3	10626.1	10622.1	10640.1	10561.7	10573.5	10563.9	10628.7	10578.5	10594.7	10594.7
658.945	17824.7	1037.76	10670.2	10518.1	10475.3	10475.5	10572.7	10492.9	10451.3	10502.9	10522.5	10514.3	10419.3	10480.7	10524.3	10501.7	10524.9	10520.1	10520.1
659.169	17766.2	1031.84	10589.5	10577.5	10448.9	10505.5	10408.7	10466.1	10375.5	10440.5	10492.3	10371.9	10489.3	10396.9	10426.9	10414.1	10460.5	10398.3	10398.3
659.394	17671.7	1038.32	10541.7	10423.9	10421.3	10439.7	10323.5	10389.9	10332.5	10302.9	10378.1	10376.7	10392.9	10427.1	10402.1	10304.7	10320.5	10344.9	10344.9
659.619	17597.4	1039.3	10548.5	10386.3	10360.1	10413.9	10398.7	10380.3	10360.3	10430.3	10373.9	10396.7	10368.3	10352.5	10272.5	10394.7	10310.9	10326.7	10326.7
659.843	17442	1037.74	10391	10273.7	10248.6	10291.4	10299.2	10251	10294.4	10278.4	10258.4	10217.4	10254.4	10202.2	10213.6	10192.6	10240.8	10177.2	10177.2
660.068	17208.3	1042.08	10298.7	10170.2	10160.6	10162	10112.2	10181	10103.6	10153	10130.2	10105	10109.4	10155	10076.2	10128.2	10081.8	10025.4	10025.4
660.292	17013.3	1031.28	10202.2	10023.9	10103.1	10087.7	10078.1	10034.1	10010.5	10070.1	10027.9	10071.1	10038.3	10018.5	9975.34	10051.1	10041.5	10023.5	10023.5
660.517	16986.2	1041	10182.9	10109.1	10052.1	10049.3	9974.06	10002.9	10062.1	10003.5	10066.3	10044.1	10051.3	10023.5	9963.26	10004.9	10034.9	10018.7	10018.7
660.741	16843.8	1039.72	10094.1	10055.1	10036.3	9965.14	9901.34	9950.74	9993.24	9911.54	9970.14	9989.74	9901.14	9911.54	9927.14	9856.54	9935.74	9877.34	9877.34
660.965	16800.1	1033.68	10096.7	10036.4	9931.76	9977.56	9912.56	9958.16	9960.56	9941.56	9981.96	9916.56	9911.16	9889.96	9879.96	9891.16	9875.76	9914.76	9914.76
661.19	16679.1	1042.8	10042.2	9939.3	9867.1	9931.1	9895.1	9830.1	9825.9	9832.9	9828.5	9802.9	9900.9	9883.9	9801.3	9814.3	9827.1	9858.9	9858.9
661.414	16494.2	1036.14	9916.79	9794.12	9789.92	9800.92	9770.12	9793.72	9797.92	9800.52	9764.52	9736.52	9752.52	9748.12	9781.52	9791.72	9752.72	9748.32	9748.32
661.638	16413.1	1034.92	9898.53	9713.2	9857.8	9759.6	9705.6	9764.4	9681	9712	9778.6	9761.2	9647.4	9696.4	9724.6	9684.8	9747.4	9699.2	9699.2
661.862	16282	1041.06	9789.98	9743.18	9746.38	9673.78	9642.78	9683.58	9699.58	9591.38	9622.98	9598.78	9691.98	9736.18	9660.98	9639.18	9625.98	9621.18	9621.18
662.086	16114.2	1040.48	9722.09	9615.36	9592.76	9541.76	9562.96	9595.36	9500.96	9544.96	9591.96	9499.96	9544.76	9532.16	9514.76	9546.76	9576.56	9490.56	9490.56
662.31	16094.3	1043.62	9693.13	9565	9617	9571.6	9607.4	9604.8	9616.8	9519	9593.8	9597.6	9529.4	9592.4	9548.6	9531.2	9625.2	9567.4	9567.4
662.534	16057	1040.88	9638.55	9559.02	9579.42	9541.82	9570.02	9561.82	9555.82	9461.42	9523.42	9502.62	9409.42	9543.42	9493.02	9515.02	9481.02	9496.42	9496.42
662.758	15886.4	1032.9	9563.29	9452.42	9397.22	9409.22	9389.22	9397.02	9347.82	9454.62	9343.02	9412.42	9358.42	9346.82	9411.02	9358.62	9440.42	9355.02	9355.02
662.982	15829.8	1033.24	9522.31	9434.44	9460.84	9427.64	9370.44	9389.64	9374.84	9345.04	9370.24	9363.04	9356.04	9335.04	9392.44	9349.84	9357.04	9384.04	9384.04
663.206	15745.8	1036.14	9448.01	9434.68	9405.08	9374.28	9352.68	9328.48	9398.28	9331.08	9319.48	9387.48	9318.08	9321.48	9323.88	9275.08	9305.08	9343.68	9343.68
663.429	15599.3	1038.74	9364.88	9337.68	9280.28	9230.08	9272.48	9242.48	9205.48	9248.28	9289.78	9272.08	9255.48	9258.88	9197.88	9212.48	9277.08	9300.08	9300.08
663.653	15454.7	1043.5	9278.71	9214.84	9207.24	9160.24	9160.24	9266.24	9168.44	9180.24	9101.04	9164.64	9172.24	9165.44	9213.04	9234.24	9079.44	9166.84	9166.84
663.877	15364.9	1034	9293.16	9158.96	9166.36	9122.56	9125.56	9149.56	9126.36	9093.16	9196.16	9094.36	9115.16	9073.56	9068.16	9074.56	9130.36	9095.96	9095.96
664.1	15215.9	1034.86	9172.53	9039.6	9081	9018.6	9054.6	9021.6	8975.6	9079.6	8965.2	9000.4	9041.4	9003.6	8976.4	9047.4	8967.2	9022.2	9022.2
664.324	15168.8	1034.4	9144.32	9109.92	9008.72	9078.72	9011.52	8983.92	8996.92	8992.32	8988.52	8986.92	8949.12	8988.32	8929.72	8967.12	8937.92	8961.92	8961.92
664.547	14980.7	1042.18	9059.05	8999.65	8965.85	8922.45	8901.55	8892.65	8915.85	8832.05	8847.45	8955.45	8891.05	8925.65	8929.45	8858.45	8861.45	8843.25	8843.25
664.771	14907.8	1044.64	9050.07	8916.74	8960.94	8880.34	8888.94	8872.54	8860.74	8830.54	8845.74	8827.54	8854.74	8781.94	8880.74	8918.54	8885.74	8836.34	8836.34
664.994	14830.7	1037.22	8967.01	8889.14	8857.34	8938.74	8864.94	8885.34	8844.34	8775.14	8876.54	8829.14	8770.74	8828.14	8760.54	8825.14	8790.34	8784.14	8784.14
665.217	14674.6	1026	8855.93	8805.26	8852.06	8729.46	8822.26	8749.46	8706.26	8705.46	8739.46	8742.26	8770.26	8697.46	8791.66	8718.46	8771.06	8737.06	8737.06
665.44	14520.7	1048.1	8764.81	8744.14	8769.34	8668.74	8669.14	8720.94	8643.14	8618.94	8689.94	8705.74	8680.14	8611.54	8646.74	8705.94	8725.74	8659.54	8659.54
665.664	14459.6	1030.34	8709.23	8669.7	8633.9	8680.5	8657.9	8616.7	8561.1	8654.3	8672.1	8677.5	8636.3	8629.3	8619.1	8622.7	8579.3	8599.1	8599.1
665.887	14376.3	1038.86	8721.53	8686.46	8616.06	8572.86	8556.66	8544.06	8551.46	8547.46	8667.26	8563.46	8620.46	8621.86	8557.26	8552.86	8522.66	8565.66	8565.66
666.11	14246.5	1031.84	8701.97	8542.57	8518.17	8562.97	8510.57	8481.57	8500.97	8430.97	8422.77	8479.77	8473.97	8555.57	8440.57	8483.57	8474.97	8481.77	8481.77
666.333	14090.5	1035.96	8553.04	8456.57	8429.37	8451.37	8452.57	8377.77	8414.37	8384.17	8388.77	8408.17	8378.17	8405.77	8402.77	8475.97	8361.37	8460.57	8460.57
666.556	14016.7	1031.96	8524.21	8414.08	8433.48	8366.68	8384.08	8353.88	8380.08	8467.08	8351.88	8458.88	8384.68	8352.48	8297.48	8378.08	8350.08	8379.88	8379.88
666.779	13904.9	1032.22	8460.52	8350.72	8357.32	8399.72	8386.52	8322.52	8365.92	8297.52	8325.12	8305.92	8332.72	8267.72	8309.92	8310.32	8361.32	8240.72	8240.72
667.002	13848.8	1034.94	8406.84	8291.84	8345.24	8286.64	8368.44	8244.24	8284.84	8283.84	8225.44	8275.24	8292.84	8258.24	8271.04	8244.44	8228.84	8186.64	8186.64
667.224	13697.7	1034.88	8296.13	8243.6	8185.4	8209.6	8200.2	8181.8	8202.4	8186.2	8149.6	8248.8	8192.2	8105	8156.2	8161.8	8113.8	8189.8	8189.8
667.447	13615.8	1041.62	8209.37	8179.24	8094.24	8130.64	8142.44	8117.24	8104.24	8151.84	8100.24	8098.64	8089.24	8076.44	8037.04	8096.84	8088.04	8055.84	8055.84
667.67	13583.5	1038.8	8237.38	8206.78	8125.18	8066.78	8174.78	8064.18	8066.18	8097.58	8129.18	8060.98	8136.98	8086.18	8054.58	8063.38	8042.58	8113.98	8113.98
667.893	13384.1	1037.66	8085.34	8054.74	8089.14	7946.34	8000.54	7977.54	8008.54	7943.94	7997.74	7948.94	7960.54	8036.74	7990.14	8004.14	7962.94	7993.34	7993.34
668.115	13366.3	1036.54	8104.86	8051.26	8066.66	8015.86	7978.86	7982.46	7931.66	7976.46	7996.66	7954.66	7973.06	8004.66	7987.66	8024.66	7935.46	8000.66	8000.66
668.338	13228.4	1039.98	8054.55	7971.82	7981.82	7921.82	7933.42	7950.62	7908.22	7939.82	7915.42	7916.42	7906.42	7967.42	7895.22	7898.42	7877.02	7878.42	7878.42
668.56	13142.1	1038.14	7977.99	7924.66	7951.46	7853.66	7884.86	7850.26	7875.26	7837.26	7842.06	7848.06	7827.66	7881.66	7855.46	7856.26	7822.86	7830.26	7830.26
668.783	13021.3	1044.12	7939.7	7882.1	7822.1	7820.1	7797.5	7792.7	7778.9	7776.1	7797.5	7798.7	7817.9	7793.9	7788.9	7742.1	7770.1	7769.9	7769.9
669.005	12984.3	1036.26	7881.15	7867.22	7881.22	7807.22	7812.42	7791.82	7790.22	7727.42	7768.62	7785.62	7789.82	7754.42	7718.82	7712.02	7769.42	7777.22	7777.22
669.227	12783.2	1033.06	7768.24	7729.44	7690.44	7667.04	7640.04	7647.04	7653.04	7672.44	7627.24	7668.24	7620.84	7639.44	7676.84	7599.84	7580.44	7593.84	7593.84
669.45	12777.4	1044.86	7745.68	7651.98	7726.98	7683.38	7641.98	7660.38	7651.58	7690.38	7669.98	7646.38	7600.18	7651.18	7634.18	7586.18	7685.58	7675.38	7675.38
669.672	12644.3	1038.72	7687.36	7677.16	7543.76	7616.16	7530.96	7539.16	7568.16	7602.96	7538.96	7619.96	7574.16	7612.56	7548.36	7563.36	7563.76	7589.96	7589.96
669.894	12508.3	1045.72	7611.13	7612.8	7558.4	7539.8	7566.6	7557.6	7558.8	7560.2	7506.6	7465.8	7500.4	7507.8	7497.7	7515.2	7521.4	7490.2	7490.2
670.116	12463.5	1031.5	7588.54	7574.14	7545.74	7550.94	7495.94	7498.74	7437.14	7489.54	7487.14	7521.74	7443.94	7506.94	7503.14	7511.74	7516.14	7435.94	7435.94
670.338	12397.7	1032.72	7561.83	7482.16	7487.56	7495.76	7465.76	7470.16	7455.76	7459.56	7479.76	7523.96	7405.16	7477.96	7426.76	7397.36	7435.76	7444.76	7444.76
670.56	12248.9	1041.8	7488.3	7402.43	7421.63	7413.43	7360.23	7393.83	7431.03	7359.03	7369.03	7385.63	7397.03	7359.03	7294.63	7369.83	7392.83	7432.83	7432.83
670.782	12170.1	1041.84	7428.74	7376.94	7317.54	7293.14	7311.54	7368.54	7317.54	7339.34	7346.14	7329.14	7330.14	7313.54	7420.14	7267.94	7254.94	7311.14	7311.14
671.004	12097.6	1038.62	7358.49	7371.36	7313.16	7340.36	7280.96	7301.96	7271.16	7287.96	7288.56	7235.16	7315.56	7254.76	7305.76	7311.56	7307.16	7269.16	7269.16
671.226	12059.1	1042.42	7369.2	7316.8	7263.2	7268.2	7245	7248.8	7239.8	7235.2	7283	7180	7270.4	7244.8	7267.2	7226.6	7266.2	7264.8	7264.8
671.448	11939	1044.68	7245.64	7212.14	7175.94	7147.14	7162.94	7194.34	7163.14	7086.74	7123.54	7159.54	7132.34	7167.34	7120.14	7128.54	7124.34	7137.14	7137.14
671.67	11784.2	1035.54	7158.01	7134.14	7066.34	7068.94	7070.94	7059.14	7104.54	7076.34	7063.54	7070.34	7082.34	7120.74	7091.54	7073.14	7041.34	7050.94	7050.94
671.891	11696.1	1033.1	7159.9	7154.1	7105.9	7112.7	7075.9	7031.1	7068.1	7108.5	7009.9	7009.7	7043.1	7038.3	7033.1	7106.5	7053.9	7053.5	7053.5
672.113	11618.6	1032.64	7082.98	7018.98	7047.78	7046.58	6997.18	7008.18	7016.58	6973.18	6985.98	7057.58	7016.98	6999.98	6972.78	6992.98	7018.38	7045.98	7045.98
672.334	11520.2	1030.18	7068.41	7021.48	6966.68	6922.48	6941.08	6946.08	6954.08	6967.88	6922.48	6957.28	6988.28	6977.88	6964.48	6924.48	6915.28	7012.48	7012.48
672.556	11461.5	1033.5	7005.57	6911.24	6937.24	6903.24	6938.24	6926.64	6901.04	6930.64	6928.04	6904.24	6954.64	6893.84	6948.64	6904.04	6895.64	6874.04	6874.04
672.778	11357.5	1036.56	6955.09	6908.56	6916.76	6926.96	6841.16	6825.36	6863.36	6912.96	6878.36	6841.56	6821.76	6884.36	6843.36	6837.76	6846.36	6837.76	6837.76
672.999	11238.6	1036.24	6883.29	6885.62	6854.82	6824.42	6751.22	6806.82	6854.22	6821.42	6806.42	6840.42	6802.42	6850.42	6794.02	6828.82	6741.22	6746.82	6746.82
673.22	11199.3	1034.94	6852.47	6828.34	6803.94	6756.94	6775.34	6783.94	6806.14	6782.94	6756.54	6777.74	6795.74	6724.94	6733.34	6791.34	6755.94	6778.74	6778.74
673.442	11054.5	1044.76	6787.91	6684.64	6717.84	6683.64	6693.24	6635.04	6678.44	6710.44	6670.24	6669.24	6671.24	6670.64	6659.24	6690.44	6661.64	6661.44	6661.44
673.663	11057.8	1031.22	6770.47	6662.8	6697.8	6719	6665.4	6641.4	6663.8	6625.2	6677.4	6644.2	6618.8	6674.8	6649.4	6630.4	6611	6673	6673
673.884	10976.3	1042.64	6757.87	6654.07	6602.67	6653.67	6632.87	6634.47	6613.27	6578.67	6605.87	6678.87	6592.27	6688.67	6590.07	6628.07	6656.27	6631.07	6631.07
674.105	10880.2	1035	6656.75	6606.88	6567.28	6586.48	6564.08	6543.98	6527.48	6531.48	6539.28	6480.48	6456.08	6570.28	6604.28	6521.88	6549.88	6537.88	6537.88
674.326	10762.7	1024.92	6637.12	6525.72	6529.72	6552.12	6511.52	6506.12	6560.12	6458.32	6466.92	6467.72	6576.32	6523.72	6544.12	6509.72	6519.92	6475.92	6475.92
674.547	10733.2	1037.06	6601.59	6514.52	6547.92	6520.92	6492.92	6546.92	6554.52	6505.72	6517.52	6511.92	6460.52	6494.72	6532.72	6441.72	6486.12	6523.32	6523.32
674.768	10567.4	1029.56	6500.45	6445.32	6422.52	6422.92	6439.52	6397.32	6414.32	6416.12	6402.72	6476.12	6414.52	6328.72	6413.52	6375.52	6417.52	6372.92	6372.92
674.989	10501.9	1037.45	6437.37	6363.3	6346.1	6390.7	6356.5	6365.1	6365.3	6370.3	6362.5	6367.5	6360.3	6313.1	6287.7	6341.7	6335.7	6337.7	6337.7
675.21	10445.8	1039.32	6393.2	6307.2	6371	6352.4	6332.8	6322.2	6364.2	6344.2	6394.6	6318.2	6355.8	6326.6	6301.6	6297.8	6376.2	6331.4	6331.4
675.431	10339.2	1039.74	6327.39	6309.52	6350.72	6283.92	6233.12	6229.32	6269.72	6237.52	6306.32	6251.52	6230.92	6252.52	6243.12	6212.92	6246.32	6309.12	6309.12
675.652	10351.9	1036.9	6312.09	6316.36	6308.76	6271.56	6237.56	6235.76	6256.56	6220.16	6255.16	6255.96	6250.96	6244.56	6238.36	6298.16	6240.76	6279.76	6279.76
675.873	10132.9	1045.36	6187.05	6166.32	6087.52	6210.72	6179.52	6164.32	6159.52	6161.52	6136.32	6121.32	6122.12	6144.32	6130.32	6157.92	6161.32	6133.72	6133.72
676.093	10126.1	1032.34	6199.12	6155.12	6161.72	6150.52	6135.52	6161.32	6181.12	6151.32	6123.72	6122.12	6144.12	6105.32	6142.72	6129.12	6148.52	6123.92	6123.92
676.314	10037.8	1028.04	6210.41	6175.08	6138.28	6175.48	6156.08	6162.48	6160.28	6155.48	6133.08	6094.28	6077.68	6139.08	6139.48	6168.68	6135.68	6090.08	6090.08
676.535	9968.14	1038.28	6131.76	6133.36	6068.36	6079.56	6117.16	6014.96	6056.16	6062.56	6048.16	6058.56	6047.96	6067.16	6075.16	6060.96	6037.76	6052.16	6052.16
676.755	9900.67	1029.22	6066.61	5972.88	6007.88	5989.88	6011.88	5998.08	6013.08	6002.88	5991.08	5952.48	5984.68	5967.08	6010.88	5976.28	5965.88	6044.08	6044.08
676.975	9863.75	1040.08	6010.21	6003.28	5979.88	6021.28	6019.28	5956.08	5995.68	5989.48	6026.28	6000.88	5973.88	6007.68	5900.28	5951.68	5932.48	5917.88	5917.88
677.196	9761.71	1035.82	6003.79	5942.86	5931.06	5946.86	5930.86	5916.86	5885.26	5906.66	5916.46	5900.86	5936.26	5925.06	5906.26	5879.26	5886.06	5870.46	5870.46
677.416	9659.15	1042.94	5916.77	5837.44	5904.64	5814.04	5893.44	5816.04	5884.24	5854.24	5851.04	5823.04	5820.84	5869.04	5796.84	5776.24	5814.24	5843.64	5843.64
677.637	9559.51	1042.2	5852.33	5842.4	5765.6	5804	5784.6	5824.6	5782.6	5742.6	5761.8	5819.4	5786.6	5880	5743.2	5758.8	5780.8	5805	5805
677.857	9554.23	1036.28	5856.08	5778.15	5760.95	5777.95	5784.15	5769.55	5734.35	5741.15	5773.55	5743.75	5815.15	5786.95	5761.55	5805.75	5780.35	5804.35	5804.35
678.077	9470.77	1033.1	5786.77	5710.5	5694.9	5689.1	5740.1	5731.3	5666.7	5718.5	5672.5	5666.9	5699.1	5639.3	5677.3	5699.9	5684.3	5680.3	5680.3
678.297	9382.74	1034.92	5751.64	5659.84	5688.24	5712.04	5697.64	5732.04	5646.24	5691.44	5638.44	5682.64	5675.04	5694.84	5709.64	5666.84	5681.04	5687.04	5687.04
678.517	9324.7	1026.12	5669.01	5674.18	5634.18	5648.78	5628.78	5640.18	5632.18	5639.78	5618.78	5629.58	5642.58	5621.58	5638.18	5591.98	5615.58	5562.38	5562.38
678.737	9266.43	1034.02	5710.15	5673.62	5671.62	5624.22	5581.02	5657.42	5645.42	5563.22	5617.82	5597.42	5637.22	5574.42	5575.02	5589.62	5607.82	5526.42	5526.42
678.957	9180.73	1032.8	5630.73	5651.46	5623.06	5577.66	5557.66	5597.06	5587.26	5592.66	5568.26	5529.86	5563.86	5602.06	5644.66	5547.46	5592.26	5579.86	5579.86
679.177	9093.62	1042.46	5583.99	5543.66	5556.66	5521.86	5505.66	5506.46	5493.66	5536.06	5521.46	5522.06	5539.86	5486.26	5524.46	5475.46	5526.46	5486.66	5486.66
679.397	9010.73	1041.18	5529.27	5490.34	5538.94	5495.54	5519.54	5444.54	5490.74	5448.74	5449.34	5455.14	5464.14	5499.54	5465.74	5402.14	5464.14	5472.14	5472.14
679.617	8925.56	1027.24	5479.63	5473.1	5493.9	5436.9	5459.7	5434.9	5426.5	5393.9	5473.7	5403.9	5438.7	5468.7	5404.7	5435.3	5368.1	5413.7	5413.7
679.837	8894.81	1035.14	5429.07	5381.74	5381.74	5368.34	5381.94	5404.14	5393.74	5406.94	5388.34	5350.34	5423.34	5422.34	5386.74	5375.74	5367.54	5361.94	5361.94
680.056	8742.62	1030.56	5346.35	5315.28	5263.68	5324.28	5271.28	5292.08	5253.68	5260.68	5269.98	5295.88	5347.68	5317.28	5289.08	5292.88	5281.08	5250.88	5250.88
680.276	8689.98	1030.42	5348.34	5304.61	5240.21	5291.81	5292.61	5234.61	5260.41	5284.81	5281.21	5272.31	5291.01	5346.61	5285.21	5236.61	5283.61	5268.81	5268.81
680.496	8654.25	1032.82	5332.22	5278.02	5249.02	5241.02	5296.82	5274.82	5248.02	5277.02	5263.82	5285.62	5274.62	5301.22	5246.82	5317.42	5179.22	5294.22	5294.22
680.715	8559.55	1040.94	5232.84	5243.44	5210.44	5263.64	5226.64	5247.84	5187.24	5207.44	5187.64	5198.64	5281.44	5217.44	5232.04	5258.64	5216.24	5240.84	5240.84
680.935	8523.44	1030.23	5225.47	5204.34	5182.34	5156.94	5265.14	5259.14	5227.74	5186.14	5210.74	5230.54	5203.34	5201.54	5202.14	5180.54	5198.14	5194.54	5194.54
681.154	8405.37	1029.4	5186.17	5160.84	5161.64	5222.04	5167.24	5148.04	5173.64	5103.64	5215.64	5108.44	5143.24	5186.24	5146.04	5127.24	5121.24	5118.04	5118.04
681.374	8368.96	1038.3	5141.88	5085.08	5070.88	5095.28	5040.08	5101.88	5054.88	5134.28	5086.08	5074.48	5125.28	5109.48	5099.68	5056.08	5112.88	5094.48	5094.48
681.593	8301.9	1041.56	5116.87	5114.34	5076.34	5103.74	5094.14	5060.14	5071.74	5087.34	4985.34	5055.94	5069.54	5069.74	5060.94	5051.14	5082.34	5041.94	5041.94
681.812	8237.25	1043.36	5070.28	5091.88	5016.88	5051.28	5081.28	5002.48	5005.28	5024.08	5027.88	5019.08	5033.08	4985.88	4983.08	4993.68	5038.08	5032.08	5032.08
682.031	8147.83	1035.42	5037.04	4993.44	4958.44	5038.04	4961.44	4961.44	4959.44	4974.64	4980.24	4966.64	4952.44	4954.64	4942.64	4922.44	5009.84	4980.64	4980.64
682.251	8110.2	1034.69	5009.48	4966.48	4948.08	4885.88	4913.48	4947.68	4981.48	4964.48	4963.68	4959.28	4926.08	4959.68	4937.88	4940.68	4989.08	4969.88	4969.88
682.47	8054.68	1025.44	5014.83	4946.1	4961.9	4931.7	4908.5	4978.1	4999.7	4981.5	4906.7	4927.9	4908.7	4920.9	4919.5	4942.3	4944.7	4942.7	4942.7
682.689	8004.69	1032.32	4959.31	4901.58	4854.18	4889.18	4917.38	4911.18	4937.58	4920.78	4870.18	4875.18	4892.38	4875.38	4885.18	4852.18	4904.38	4857.38	4857.38
682.908	7880.98	1035.4	4885.75	4823.42	4879.62	4822.22	4832.62	4826.02	4821.42	4877.82	4835.42	4804.02	4824.22	4763.22	4785.02	4806.42	4760.22	4799.62	4799.62
683.127	7877.15	1037.96	4847.76	4856.96	4852.56	4816.96	4776.76	4818.76	4812.76	4807.36	4784.36	4777.96	4829.36	4778.36	4732.76	4757.56	4789.76	4814.76	4814.76
683.346	7812.75	1035.32	4823.19	4789.66	4795.66	4770.66	4804.46	4772.66	4749.26	4751.26	4740.46	4753.66	4737.66	4702.06	4741.86	4680.46	4733.46	4706.26	4706.26
683.565	7762.4	1048.02	4761.59	4789.52	4747.52	4747.52	4719.72	4738.72	4692.32	4729.32	4680.72	4717.12	4771.32	4708.72	4731.72	4625.92	4701.32	4653.32	4653.32
683.783	7642	1041.84	4734.33	4683.66	4719.66	4650.06	4706.26	4630.86	4673.66	4670.66	4646.26	4676.06	4616.86	4704.06	4701.66	4687.66	4653.86	4643.46	4643.46
684.002	7583.34	1034.84	4688.15	4652.68	4610.68	4628.28	4661.48	4611.88	4682.88	4630.28	4649.28	4604.48	4564.28	4607.88	4677.08	4629.08	4621.88	4618.48	4618.48
684.221	7500.61	1030.64	4661.56	4646.36	4653.96	4635.16	4661.16	4640.96	4634.96	4568.36	4590.76	4593.96	4591.16	4616.56	4597.76	4579.16	4640.16	4619.76	4619.76
684.439	7464.19	1032.9	4625.26	4591.06	4586.46	4585.86	4636.46	4601.46	4534.06	4599.86	4583.66	4595.66	4537.66	4600.46	4585.26	4574.46	4594.86	4548.26	4548.26
684.658	7446.35	1037.5	4665.2	4608.4	4574.2	4592.2	4608.2	4642.4	4569.8	4599.6	4535.6	4597.4	4533.8	4547.8	4594.2	4595.2	4545	4585	4585
684.877	7354.01	1045.82	4578.33	4553.86	4525.86	4540.86	4430.46	4490.26	4526.26	4505.66	4516.26	4505.06	4514.06	4575.26	4455.26	4495.06	4484.46	4501.86	4501.86
685.095	7267.18	1037.24	4539.26	4491.46	4487.26	4508.26	4379.86	4464.06	4482.66	4474.86	4450.86	4462.06	4492.06	4486.46	4483.06	4400.46	4499.26	4491.86	4491.86
685.314	7254.18	1034.72	4479.95	4426.62	4446.42	4452.02	4411.02	4413.82	4429.22	4460.62	4455.42	4465.42	4472.22	4419.02	4388.22	4407.82	4417.22	4424.42	4424.42
685.532	7163.94	1037.88	4442.99	4440.46	4419.86	4391.66	4442.26	4372.46	4438.66	4377.66	4372.06	4404.46	4416.66	4375.86	4354.66	4343.66	4379.26	4391.86	4391.86
685.75	7108.26	1035.04	4410.31	4374.48	4380.88	4382.08	4391.88	4386.68	4390.68	4349.68	4382.28	4391.88	4407.68	4404.48	4379.88	4335.88	4308.48	4388.48	4388.48
685.969	7018.38	1030.86	4384.03	4316.3	4326.9	4328.7	4327.1	4325.7	4320.1	4283.7	4321.3	4379.5	4262.3	4344.1	4295.5	4386.9	4290.1	4313.7	4313.7
686.187	7028.14	1038.62	4383.97	4328.9	4358.7	4347.9	4287.9	4295.7	4310.1	4337.1	4317.9	4389.1	4336.5	4361.9	4303.5	4373.5	4307.9	4303.1	4303.1
686.405	6937.99	1037.46	4317.92	4292.72	4274.12	4258.12	4236.32	4284.52	4254.72	4238.72	4258.12	4270.32	4236.92	4323.92	4278.52	4276.12	4334.72	4247.92	4247.92
686.623	6854.34	1030.77	4299.63	4231.3	4244.9	4221.7	4238.7	4238.9	4266.3	4257.9	4202.9	4278.1	4258.9	4268.9	4232.7	4241.7	4216.9	4219.3	4219.3
686.841	6817.46	1038.04	4259.52	4213.52	4231.32	4230.92	4202.72	4230.72	4231.72	4209.72	4217.32	4251.32	4235.72	4236.12	4210.92	4197.92	4175.92	4176.32	4176.32
687.059	6749.65	1043.08	4228.17	4236.5	4227.5	4192.3	4186.7	4179.7	4166.5	4177.5	4220.9	4183.1	4166.3	4166.9	4180.7	4167.9	4202.7	4155.3	4155.3
687.277	6706.43	1036.24	4233.99	4154.72	4189.32	4155.52	4178.72	4172.12	4163.92	4142.72	4168.92	4121.92	4182.92	4157.32	4177.52	4096.92	4143.32	4164.32	4164.32
687.495	6647.85	1037.34	4142.83	4164.7	4146.9	4143.1	4110.5	4152.7	4117.1	4087.1	4128.1	4097.9	4107.7	4112.1	4061.5	4090.3	4114.1	4097.7	4097.7
687.713	6600.43	1038.7	4116.65	4151.38	4092.18	4087.58	4085.78	4079.98	4109.78	4055.58	4062.38	4099.58	4029.58	4121.58	4105.78	4080.78	4055.98	4076.78	4076.78
687.931	6523.21	1035.52	4082.59	4058.92	4002.92	4097.52	4036.72	4059.12	4073.52	4036.52	4033.12	4057.12	4009.32	4061.32	4077.72	4040.12	4062.72	4008.72	4008.72
688.148	6484.01	1028.12	4055.17	3965.74	4050.84	4027.04	4014.64	3981.64	4028.24	4028.04	3965.04	3974.64	3993.84	4016.04	4007.64	4047.04	3969.64	4006.84	4006.84
688.366	6446.71	1031.22	4035.83	3967.23	4013.03	3959.83	4055.03	3979.43	4033.03	3984.43	4018.23	3997.23	3961.83	3974.83	3987.63	4006.23	3959.63	3986.43	3986.43
688.584	6376.78	1034.28	3973.25	3970.38	3985.98	3961.18	3942.78	3967.58	3990.18	3948.78	3945.98	3952.78	3907.58	4009.58	3941.58	3948.18	3969.58	3941.78	3941.78
688.801	6334.58	1042.86	3956.37	3983.3	3939.1	3935.3	3919.3	3906.3	3909.1	3921.9	3892.5	3974.7	3913.5	3939.9	3914.5	3901.3	3936.1	3929.5	3929.5
689.019	6268.1	1037.58	3955.1	3902.9	3945.7	3938.9	3909.7	3959.5	3878.3	3902.7	3927.3	3869.9	3904.7	3885.9	3871.7	3887.5	3897.5	3862.1	3862.1
689.236	6256.48	1032.58	3931.75	3855.62	3881.82	3896.42	3859.62	3929.62	3840.22	3868.62	3868.82	3860.82	3860.42	3840.62	3859.42	3891.22	3894.82	3896.42	3896.42
689.454	6180.12	1039	3866.89	3848.16	3867.96	3812.56	3822.96	3841.56	3849.36	3787.96	3872.56	3824.56	3834.96	3886.56	3843.96	3835.36	3830.76	3850.56	3850.56
689.671	6147.26	1037.7	3833.45	3840.52	3845.32	3818.32	3852.32	3857.12	3833.52	3855.92	3817.72	3828.72	3826.32	3856.32	3797.12	3855.32	3822.32	3819.12	3819.12
689.888	6130.58	1031.52	3846.57	3813.17	3788.17	3785.77	3815.97	3787.97	3801.97	3877.17	3793.37	3783.97	3805.17	3822.17	3808.17	3799.17	3728.57	3775.57	3775.57
690.105	6023.69	1031.42	3791.67	3767.34	3747.14	3714.54	3717.14	3746.74	3737.34	3718.74	3684.34	3776.14	3755.74	3728.14	3772.14	3734.34	3748.14	3696.34	3696.34
690.323	5967.37	1032.54	3737.21	3690.28	3637.08	3711.48	3722.48	3683.88	3729.28	3746.08	3694.28	3700.48	3674.28	3678.28	3707.68	3665.68	3702.88	3692.68	3692.68
690.54	5941.45	1038.48	3710.03	3657.76	3677.96	3729.96	3637.96	3717.76	3675.76	3690.76	3683.16	3675.76	3697.76	3695.16	3668.56	3640.36	3705.16	3677.96	3677.96
690.757	5887.48	1041.5	3704.36	3648.56	3672.36	3668.76	3629.76	3656.16	3651.36	3675.36	3674.36	3592.56	3653.96	3680.96	3643.96	3619.96	3614.56	3598.96	3598.96
690.974	5859.25	1032.94	3679.4	3644	3669	3647.6	3598	3610	3598.8	3650.4	3592.6	3585	3632	3635	3631.6	3628.6	3612	3584.2	3584.2
691.191	5788.74	1040.48	3621.53	3641.86	3594.26	3619.66	3626.46	3600.06	3568.66	3574.46	3586.26	3582.46	3590.66	3618.46	3596.86	3640.66	3566.06	3610.86	3610.86
691.408	5730.55	1043.06	3593.34	3641.34	3579.34	3625.54	3543.54	3562.54	3606.54	3555.94	3516.14	3606.34	3558.54	3579.34	3585.34	3590.34	3559.14	3551.54	3551.54
691.625	5667.49	1045.24	3599.87	3576.2	3563.8	3537.6	3495.8	3579.6	3534.2	3497.8	3533.4	3527.8	3534.2	3510.4	3555.8	3528	3553.2	3544	3544
691.842	5633.63	1033.24	3570.77	3532.5	3529.7	3483.9	3543.7	3520.7	3529.9	3496.1	3493.1	3540.7	3537.9	3518.1	3548.7	3506.5	3524.3	3502.5	3502.5
692.058	5575.98	1042.14	3546.89	3488.82	3522.62	3477.22	3540.22	3524.02	3485.22	3451.02	3490.42	3518.42	3510.42	3481.42	3503.22	3514.42	3475.82	3529.22	3529.22
692.275	5546.93	1035.36	3496.8	3510	3508.4	3460.8	3480	3480	3536.4	3521.4	3471.4	3454	3489	3526	3417.4	3450	3474.6	3497.2	3497.2
692.492	5482.35	1036.44	3446.65	3510.98	3485.38	3426.38	3477.38	3440.98	3491.98	3441.38	3437.58	3428.18	3463.38	3457.58	3438.58	3441.78	3451.38	3422.78	3422.78
692.708	5417.94	1036.62	3431.97	3466.84	3428.64	3402.44	3416.44	3363.64	3370.44	3426.04	3404.44	3409.24	3427.24	3399.84	3404.04	3399.24	3424.04	3389.64	3389.64
692.925	5379.18	1046.18	3426.43	3368.16	3415.56	3377.76	3378.96	3363.16	3358.56	3368.56	3365.36	3377.96	3368.36	3400.76	3381.16	3355.16	3371.96	3383.16	3383.16
693.141	5346.81	1034.44	3407.31	3407.58	3370.18	3342.78	3372.38	3398.78	3382.98	3376.18	3404.98	3376.78	3343.98	3376.98	3337.18	3315.78	3374.58	3405.18	3405.18
693.358	5318.1	1038.56	3341.39	3379.26	3354.46	3320.86	3336.66	3340.66	3337.46	3317.86	3364.46	3301.06	3320.66	3310.26	3307.66	3284.26	3347.26	3296.46	3296.46
693.574	5275.68	1034.06	3317.97	3312.24	3311.24	3302.84	3268.04	3365.24	3314.04	3254.04	3304.04	3291.84	3308.24	3310.84	3304.04	3291.24	3309.04	3305.84	3305.84
693.791	5243.77	1032.86	3303.1	3266.9	3322.5	3289.9	3271.3	3316.9	3273.1	3294.7	3285.7	3246.9	3267.1	3276.7	3292.1	3295.1	3275.5	3320.3	3320.3
694.007	5160.37	1039.9	3273.13	3242.46	3234.06	3214.86	3215.06	3246.46	3244.46	3240.06	3205.26	3271.66	3247.66	3220.76	3263.26	3252.46	3272.26	3254.46	3254.46
694.223	5124	1040.24	3251.24	3185.44	3221.04	3198.44	3178.64	3217.64	3185.24	3192.24	3190.84	3197.84	3217.54	3197.64	3226.84	3159.64	3276.24	3218.04	3218.04
694.439	5088.45	1040.2	3236.87	3226.2	3193.6	3204.4	3222.2	3219.6	3176.8	3226.8	3222.2	3203	3184.6	3189	3221.2	3182	3214.8	3196.4	3196.4
694.655	5060.32	1036.12	3196.94	3154.94	3198.74	3194.34	3171.74	3174.94	3199.94	3152.94	3158.54	3179.74	3153.94	3206.34	3178.54	3162.74	3179.94	3193.74	3193.74
694.872	5003.28	1032.34	3204.73	3177.6	3178.6	3165	3173.2	3151	3176.8	3127.4	3116.6	3179.2	3128.2	3181.2	3141.8	3136.2	3185.6	3148.4	3148.4
695.088	4962.88	1043.06	3171.61	3176.74	3136.34	3138.74	3123.74	3135.54	3079.14	3102.94	3126.34	3120.74	3100.34	3130.54	3125.34	3090.54	3116.54	3103.34	3103.34
695.304	4952.77	1044.38	3141.63	3100.1	3098.1	3143.5	3115.3	3105.9	3115.5	3093.1	3094.5	3133.7	3092.3	3148.5	3114.5	3119.5	3086.1	3056.7	3056.7
695.519	4878.22	1032.4	3126.87	3071.4	3098	3039	3103.2	3038	3110.4	3087.6	3100.8	3091.2	3099	3061.6	3054.6	3079.6	3064.4	3036.2	3036.2
695.735	4851.82	1031.28	3089.03	3054.9	3063.5	3064.9	3079.1	3036.5	3053.1	3023.3	3037.9	3077.5	3041.3	3052.9	3031.5	3048.1	3064.1	3044.1	3044.1
695.951	4813.14	1029.7	3079.12	3114.39	3078.39	3023.79	3053.59	3043.39	3007.59	3018.99	2994.99	3030.79	3019.79	3038.79	3051.59	3052.19	3025.99	3023.99	3023.99
696.167	4777.39	1030.2	3020.83	3084.56	3063.76	3020.16	3040.96	3027.16	3028.36	3056.56	3048.36	3064.16	3029.96	2972.56	3012.36	3075.36	3020.36	3032.16	3032.16
696.383	4731.44	1039.72	3010.79	3027.92	3015.72	2998.12	2970.92	2994.52	2968.72	2978.52	2996.32	2965.12	2993.52	2973.72	2964.52	2958.32	2996.92	2938.32	2938.32
696.598	4660.71	1035.98	2982.08	2952.48	2976.68	2975.88	2964.48	2952.68	2992.28	2961.68	2944.08	2972.08	2942.28	2939.68	2970.48	2970.88	2951.48	2933.08	2933.08
696.814	4636.11	1040.3	2971.58	2939.18	2960.98	2969.58	2980.58	2939.78	2945.18	2951.98	2903.18	2934.38	2938.98	2950.58	2950.78	2935.58	2939.58	2950.98	2950.98
697.029	4601.44	1027.7	2932.65	2943.18	2933.18	2936.18	2915.38	2931.98	2919.38	2920.58	2955.18	2889.78	2920.18	2929.98	2926.38	2906.18	2928.98	2909.18	2909.18
697.245	4588.79	1039.3	2929.61	2920.28	2956.88	2900.68	2905.08	2902.48	2911.88	2895.28	2873.08	2893.68	2941.48	2896.88	2926.88	2881.68	2886.08	2920.08	2920.08
697.46	4510.59	1049.76	2891.45	2891.98	2873.78	2821.18	2825.18	2837.38	2865.58	2859.98	2847.38	2847.78	2873.78	2864.78	2835.78	2863.78	2874.98	2863.58	2863.58
697.676	4501.93	1034.82	2874.7	2842.7	2837.7	2835.7	2832.3	2827.1	2839.5	2855.5	2814.3	2867.9	2862.1	2843.9	2855.5	2877.1	2832.5	2825.7	2825.7
697.891	4470.2	1043.62	2853.5	2834.9	2820.9	2814.1	2859.5	2842.9	2844.7	2833.7	2852.3	2859.9	2785.5	2843.9	2818.3	2821.3	2834.9	2806.5	2806.5
698.106	4443.51	1034.76	2863.86	2765.06	2836.26	2811.46	2824.26	2791.66	2829.06	2790.06	2812.26	2856.86	2803.06	2799.66	2812.66	2843.06	2821.46	2808.46	2808.46
698.321	4368.61	1042.5	2810.59	2797.66	2797.46	2771.86	2755.86	2747.86	2768.66	2764.26	2755.46	2737.46	2776.46	2805.66	2794.26	2746.26	2732.26	2756.26	2756.26
698.537	4351.03	1031.9	2773.39	2718.66	2790.46	2752.66	2746.66	2741.46	2729.46	2739.06	2744.26	2747.46	2753.66	2754.46	2747.06	2747.86	2730.06	2739.66	2739.66
698.752	4305.37	1037.28	2754.24	2719.44	2761.64	2741.84	2725.04	2724.84	2747.04	2706.44	2737.24	2731.84	2710.64	2693.04	2733.04	2714.44	2716.84	2696.84	2696.84
698.967	4264.73	1050.3	2728.03	2707.36	2717.96	2704.56	2714.76	2693.36	2746.76	2696.16	2700.76	2693.76	2689.96	2710.76	2680.56	2712.16	2695.36	2725.16	2725.16
699.182	4229.14	1045.6	2714.41	2715.48	2693.68	2727.08	2666.28	2602.88	2715.68	2686.28	2697.68	2714.68	2659.28	2694.88	2719.68	2675.08	2674.08	2730.28	2730.28
699.397	4196.74	1035.54	2692.85	2710.78	2666.98	2693.78	2681.98	2640.38	2670.58	2669.98	2700.98	2649.58	2672.38	2655.98	2687.18	2699.78	2672.38	2690.58	2690.58
699.612	4135.4	1027.18	2662.1	2616.5	2640.1	2606.7	2646.7	2654.5	2609.5	2613.1	2612.3	2598.9	2648.3	2635.5	2641.9	2639.3	2680.7	2576.9	2576.9
699.826	4124.94	1029.98	2625.75	2640.88	2606.08	2612.88	2595.48	2629.88	2594.48	2562.68	2572.08	2603.28	2630.28	2625.48	2611.48	2608.48	2621.88	2596.48	2596.48
700.041	4081.51	1030.46	2617.87	2618.8	2598.8	2604.2	2605	2609.6	2654	2596.4	2593	2587.8	2557.8	2604.6	2584.4	2578.2	2600.8	2598	2598
700.256	4053.19	1040.72	2592.15	2605.42	2597.02	2582.02	2564.22	2576.42	2601.82	2584.02	2548.02	2588.02	2572.82	2549.62	2567.62	2568.22	2578.62	2577.42	2577.42
700.471	3990.01	1044.38	2584.14	2567.14	2571.14	2567.14	2559.14	2518.54	2521.74	2535.74	2525.34	2518.14	2558.14	2541.54	2528.54	2533.74	2562.14	2549.34	2549.34
700.685	3974.81	1039.84	2562.45	2537.18	2555.18	2526.18	2555.58	2530.58	2556.98	2510.78	2547.58	2529.58	2567.58	2535.18	2515.38	2491.18	2522.58	2537.38	2537.38
700.9	3927.8	1029.34	2542.85	2567.18	2552.58	2533.58	2555.78	2536.18	2523.98	2524.78	2557.78	2520.98	2544.98	2521.78	2557.38	2496.58	2564.78	2521.58	2521.58
701.114	3907.58	1035.2	2501.49	2505.42	2493.42	2503.82	2508.22	2508.22	2478.02	2463.82	2496.02	2527.42	2494.82	2476.02	2486.02	2474.02	2479.42	2501.62	2501.62
701.329	3862.59	1034.96	2506.8	2452.8	2502	2443.2	2450.8	2501	2392.6	2434.6	2422.4	2447.4	2432.6	2450.2	2440.6	2471.6	2488.6	2470.6	2470.6
701.543	3825.07	1037.84	2447.09	2439.89	2419.89	2446.09	2466.89	2452.09	2438.89	2414.09	2404.89	2426.29	2430.69	2451.29	2416.49	2407.29	2433.09	2423.49	2423.49
701.758	3805.65	1030.64	2436.77	2414.7	2421.7	2440.1	2421.1	2427.7	2424.5	2423.9	2418.1	2403.5	2429.3	2446.8	2394.3	2408.1	2429.9	2423.7	2423.7
701.972	3782.24	1028.6	2444.02	2419.62	2408.22	2407.62	2420.02	2438.22	2420.62	2444.62	2398.02	2428.42	2429.42	2405.82	2418.82	2440.02	2404.62	2398.22	2398.22
702.186	3718.55	1038.56	2412.96	2377.36	2400.36	2370.96	2354.76	2366.76	2401.56	2395.96	2382.16	2392.96	2399.76	2352.36	2385.56	2395.16	2386.96	2383.76	2383.76
702.4	3725.22	1036.44	2402.53	2412.2	2379.8	2376.8	2373	2365.6	2377.4	2376.6	2380.2	2380.6	2381.4	2360.6	2383.2	2388.2	2378.2	2397	2397
702.615	3692.55	1036.18	2372.05	2381.42	2332.62	2367.42	2350.02	2308.22	2372.62	2387.22	2358.62	2361.42	2357.82	2363.22	2381.62	2341.62	2347.62	2331.62	2331.62
702.829	3651.76	1031.88	2363.71	2334.64	2306.64	2353.44	2342.24	2374.44	2347.64	2337.64	2336.64	2351.04	2337.04	2324.24	2325.84	2321.04	2297.84	2294.84	2294.84
703.043	3623.73	1045.92	2340.73	2292.13	2332.73	2337.73	2297.93	2320.73	2298.53	2309.33	2341.93	2296.93	2311.33	2300.73	2286.93	2310.93	2284.33	2313.73	2313.73
703.257	3562.66	1035.38	2312.69	2306.56	2281.36	2294.96	2264.96	2313.56	2311.56	2296.96	2253.56	2272.96	2259.96	2266.16	2274.56	2301.76	2251.36	2260.76	2260.76
703.471	3551.23	1037.08	2303.77	2263.64	2254.64	2264.44	2262.64	2287.64	2272.24	2295.44	2239.24	2281.84	2242.44	2219.44	2259.04	2289.84	2274.04	2280.84	2280.84
703.684	3530.23	1036.58	2275.35	2258.08	2232.88	2284.88	2236.88	2257.28	2205.28	2214.48	2216.28	2262.88	2231.88	2245.28	2259.08	2246.68	2212.28	2255.48	2255.48
703.898	3491.92	1031.64	2276.65	2212.98	2244.78	2231.18	2258.58	2211.18	2203.58	2262.38	2250.58	2239.78	2228.18	2250.58	2247.18	2279.18	2221.98	2234.58	2234.58
704.112	3465.58	1030.18	2237.45	2232.58	2222.18	2216.38	2231.18	2212.58	2216.58	2234.38	2199.98	2201.98	2227.58	2211.38	2232.98	2247.58	2173.78	2194.98	2194.98
704.326	3438.08	1031.88	2222.23	2210.1	2189.9	2222.9	2186.5	2214.9	2208.1	2223.3	2194.1	2187.5	2211.1	2229.1	2203.5	2212.3	2237.5	2186.9	2186.9
704.539	3395.97	1035.06	2178.29	2199.96	2160.56	2134.16	2188.76	2122.36	2159.76	2184.76	2172.36	2170.36	2141.16	2171.16	2167.36	2140.36	2223.76	2142.16	2142.16
704.753	3341.5	1024.2	2173.78	2159.98	2155.98	2162.18	2132.98	2130.38	2173.38	2154.98	2123.38	2168.38	2179.18	2144.38	2139.98	2175.58	2156.38	2147.98	2147.98
704.967	3365.22	1030.48	2156.78	2131.18	2129.78	2147.38	2116.58	2156.58	2116.78	2129.98	2134.78	2165.98	2135.98	2149.78	2157.78	2141.18	2125.98	2134.18	2134.18
705.18	3306.7	1047.06	2129.05	2138.98	2136.98	2103.58	2111.18	2114.58	2079.78	2119.78	2104.18	2099.38	2112.18	2096.38	2137.58	2108.18	2104.38	2122.58	2122.58
705.394	3284.47	1039.76	2115.16	2080.36	2112.36	2084.36	2095.16	2075.76	2116.56	2103.76	2137.76	2114.56	2078.56	2090.76	2120.96	2075.96	2110.16	2089.96	2089.96
705.607	3277.98	1033.2	2114.05	2096.32	2108.12	2088.32	2077.32	2123.32	2112.52	2131.52	2098.52	2115.12	2080.32	2140.72	2097.72	2099.12	2085.72	2116.72	2116.72
705.82	3236.45	1034.79	2098.28	2096.08	2132.48	2079.88	2067.48	2099.68	2120.68	2089.68	2073.28	2081.28	2087.68	2070.08	2047.28	2079.08	2070.48	2081.48	2081.48
706.034	3193.06	1041.02	2056.36	2055.46	2050.66	2075.06	2065.66	2057.66	2063.46	2082.26	2035.66	2016.46	2066.26	2038.86	2036.46	2028.46	2044.66	2032.26	2032.26
706.247	3163.8	1041.94	2054.2	2025.6	2022	2042.6	2028.6	2025	2052.4	2066.2	2071.6	2040	2048.8	2006.2	1971.6	2019.6	2002.6	2026.6	2026.6
706.46	3163.2	1038.58	2056.49	2049.42	2069.42	2027.42	1992.02	2054.42	2034.02	2016.22	1991.62	2016.42	2007.62	2015.42	2037.62	2063.02	2032.22	2043.22	2043.22
706.673	3117.47	1037.36	2021.84	1990.24	2019.04	2015.64	2019.64	2011.64	2003.44	2003.24	1998.84	1983.24	2065.04	2002.24	1989.64	1999.64	1980.24	2030.24	2030.24
706.886	3088.21	1043.06	1996.04	2004.64	1958.44	1961.24	1995.04	2011.24	1995.44	1964.64	2013.04	2005.84	1996.64	1993.04	1972.64	1958.84	1993.04	2002.24	2002.24
707.099	3067.27	1029.92	1983	1977	1978	1960.6	1971.8	2000.6	1977.8	1953.2	1948.6	1991	1974.6	1955.6	1982	1996	1950.6	1944.4	1944.4
707.312	3037.44	1039.6	1952.21	1967.54	1957.14	1911.14	1943.34	1939.94	1947.74	1923.54	1975.74	1939.34	1939.14	1953.34	1953.34	1925.34	1931.34	1907.54	1907.54
707.525	3007.22	1029.92	1936.33	1953.46	1950.66	1901.46	1929.86	1920.46	1929.46	1913.46	1938.86	1967.06	1922.06	1897.26	1901.46	1959.06	1894.06	1935.86	1935.86
707.738	2990.81	1043.86	1934.8	1893.6	1897.6	1907.8	1915.2	1899.4	1895.4	1903	1931.4	1898.8	1937.6	1887	1874.6	1891.8	1881.6	1894.2	1894.2
707.951	2964.5	1041.1	1902.01	1884.68	1875.08	1918.08	1898.48	1900.68	1899.28	1891.08	1879.88	1892.88	1899.28	1907.08	1885.88	1886.88	1861.28	1876.68	1876.68
708.163	2929.31	1033.32	1910.32	1857.32	1845.32	1903.32	1854.92	1856.52	1838.32	1864.52	1853.52	1839.52	1837.32	1927.12	1836.32	1886.52	1858.32	1871.12	1871.12
708.376	2898.54	1039.84	1880.43	1846.5	1853.9	1871.7	1841.3	1851.1	1852.9	1853.7	1854.3	1851.9	1834.1	1857.9	1850.1	1802.3	1841.9	1878.7	1878.7
708.589	2854.53	1036.42	1871.43	1846.16	1856.36	1810.16	1832.56	1893.36	1872.56	1861.16	1865.36	1856.36	1869.36	1850.56	1836.36	1860.56	1834.16	1831.56	1831.56
708.801	2853.94	1037.32	1836.55	1849.28	1844.88	1822.88	1820.88	1820.48	1825.48	1858.28	1850.68	1797.28	1862.88	1838.08	1830.48	1858.48	1847.68	1848.08	1848.08
709.014	2835.82	1034.63	1819.49	1822.16	1801.96	1810.36	1831.96	1787.96	1800.76	1804.76	1808.56	1832.36	1847.56	1856.96	1827.76	1797.36	1792.36	1803.76	1803.76
709.226	2804.85	1039.18	1807.32	1819.45	1806.65	1816.05	1800.45	1794.85	1777.45	1779.85	1779.65	1803.45	1763.25	1776.65	1768.25	1790.45	1789.25	1779.45	1779.45
709.439	2771.27	1041.14	1793.27	1817.2	1791	1766.2	1784.8	1757.2	1797.8	1750.2	1770.8	1792.8	1769.6	1768.2	1821	1819.6	1771.6	1787.6	1787.6
709.651	2759.71	1034.96	1774.72	1783.32	1741.12	1733.52	1754.72	1726.72	1747.72	1770.72	1742.32	1775.92	1729.92	1731.92	1737.52	1731.52	1751.12	1735.12	1735.12
709.864	2741.21	1026.96	1743.84	1774.84	1750.84	1732.84	1740.64	1750.04	1740.24	1790.24	1733.24	1754.24	1748.24	1759.84	1739.64	1743.84	1764.44	1767.44	1767.44
710.076	2700.49	1035.42	1752.73	1745.4	1735.8	1726.8	1743.4	1732.6	1748.8	1733.6	1754	1735.4	1735.4	1762.2	1728.8	1764.8	1748	1743.8	1743.8
710.288	2673.31	1045.2	1735.25	1724.12	1706.12	1731.32	1728.32	1750.12	1720.52	1716.92	1712.52	1709.12	1723.92	1716.32	1709.72	1670.12	1717.52	1703.32	1703.32
710.5	2645.02	1035.78	1725.36	1719.76	1734.56	1720.36	1695.96	1698.76	1724.76	1702.36	1701.96	1735.36	1707.36	1713.16	1690.56	1704.76	1687.56	1696.36	1696.36
710.712	2607.23	1055.58	1686.97	1707.1	1694.9	1713.3	1667.7	1649.5	1668.5	1654.1	1682.7	1665.5	1680.3	1670.7	1660.5	1646.9	1668.3	1683.1	1683.1
710.924	2587.23	1034.96	1690.69	1658.62	1692.02	1672.42	1656.82	1645.42	1607.82	1698.62	1675.02	1669.82	1716.02	1689.02	1646.02	1675.82	1670.42	1654.62	1654.62
711.136	2563.77	1030.04	1651.27	1646.8	1638.6	1652	1680.8	1671	1660	1684.8	1648.6	1628.4	1603.2	1607.8	1647.2	1691.2	1664.4	1655.8	1655.8
711.348	2534.52	1040.4	1670.51	1645.84	1642.64	1670.84	1661.64	1600.64	1673.04	1637.64	1647.24	1642.04	1637.04	1641.04	1629.24	1663.44	1642.84	1656.04	1656.04
711.56	2524.4	1032.52	1622.97	1601.04	1634.04	1628.44	1625.84	1626.64	1629.04	1612.64	1591.44	1625.84	1623.64	1606.24	1616.84	1629.64	1642.44	1618.04	1618.04
711.772	2462.63	1039.18	1586.34	1563.14	1602.94	1621.14	1591.74	1608.94	1573.54	1607.54	1603.34	1597.94	1631.34	1603.54	1623.14	1574.14	1608.74	1587.94	1587.94
711.984	2457.18	1039.56	1605.99	1588.32	1612.12	1588.72	1608.32	1568.12	1559.92	1585.92	1587.12	1560.92	1621.12	1600.12	1584.92	1594.12	1559.32	1577.12	1577.12
712.195	2439.71	1040.22	1595.03	1577.3	1593.1	1558.3	1585.9	1598.3	1579.3	1615.9	1548.9	1578.5	1598.1	1552.5	1587.1	1615.1	1573.3	1586.3	1586.3
712.407	2405.92	1032.84	1571.5	1571.1	1555.7	1546.3	1558.9	1576.1	1564.4	1585.9	1557.3	1568.9	1569.1	1539.7	1560.5	1533.3	1553.9	1553.7	1553.7
712.619	2384.7	1035.58	1571.15	1548.02	1554.42	1532.82	1566.22	1588.22	1534.82	1525.62	1567.22	1544.62	1567.22	1547.22	1545.22	1568.62	1546.62	1535.62	1535.62
712.83	2338.27	1035.1	1519.99	1532.32	1531.12	1521.92	1502.92	1525.52	1561.12	1537.32	1527.52	1515.72	1544.72	1530.52	1506.12	1542.92	1505.12	1520.92	1520.92
713.042	2326.24	1038.24	1527.81	1524.34	1525.34	1496.74	1529.54	1544.54	1486.74	1531.94	1477.94	1534.94	1519.34	1509.34	1496.54	1516.94	1520.54	1491.14	1491.14
713.253	2296.15	1029.55	1519.72	1497.32	1474.32	1503.52	1488.72	1501.32	1477.12	1490.12	1501.52	1514.72	1473.12	1492.52	1494.12	1480.12	1456.72	1500.32	1500.32
713.465	2284.78	1037.96	1493.53	1494.6	1485.6	1487	1442.8	1487.8	1466.8	1493.8	1471.6	1483	1494	1487	1493	1484.4	1494	1465.2	1465.2
713.676	2254.75	1027.16	1496.19	1465.26	1467.06	1476.86	1469.86	1493.66	1505.66	1488.66	1447.46	1480.06	1486.66	1450.46	1464.86	1474.26	1488.06	1502.26	1502.26
713.887	2229.58	1034.88	1466.05	1461.12	1443.22	1460.92	1438.92	1434.92	1459.72	1460.32	1436.52	1500.92	1440.72	1438.72	1439.92	1474.72	1429.72	1441.72	1441.72
714.099	2205.85	1043.78	1423.96	1417.16	1443.96	1443.96	1422.76	1409.96	1447.56	1439.96	1409.36	1429.16	1415.56	1431.56	1424.16	1400.16	1444.56	1418.76	1418.76
714.31	2181.04	1037.12	1430.55	1422.35	1435.15	1426.15	1427.55	1418.75	1433.35	1391.55	1434.95	1417.75	1396.75	1432.75	1458.55	1430.15	1431.15	1471.35	1471.35
714.521	2156.51	1040.56	1405.97	1402.04	1415.84	1402.44	1399.44	1447.64	1419.04	1345.44	1389.64	1425.64	1413.64	1413.04	1408.84	1378.84	1405.84	1386.44	1386.44
714.732	2142.01	1032.82	1420.67	1370	1390.8	1411.6	1393.6	1399.4	1383.6	1405	1409.2	1414	1407.4	1400.4	1424	1419.8	1394.4	1426.4	1426.4
714.943	2114.69	1036.16	1378.92	1362.72	1398.52	1393.72	1401.32	1375.72	1358.52	1391.12	1336.92	1401.12	1377.12	1352.72	1389.72	1357.52	1369.92	1343.32	1343.32
715.154	2092.33	1032.86	1377.19	1416.66	1352.46	1387.66	1350.26	1399.06	1359.86	1333.66	1361.46	1375.26	1357.26	1358.86	1384.06	1329.06	1379.66	1380.66	1380.66
715.365	2058.35	1035.78	1372.4	1357.6	1383	1354.8	1354	1346.4	1382.8	1359.8	1340.2	1339.4	1332.6	1387	1348.4	1333.4	1332.2	1336	1336
715.576	2047.95	1037.26	1354.55	1323.22	1344.62	1346.02	1365.22	1319.82	1381.22	1328.22	1380.22	1355.22	1351.42	1368.42	1324.02	1369.22	1325.42	1340.02	1340.02
715.787	2014.84	1040.3	1328.34	1324.34	1319.94	1329.34	1316.94	1295.34	1308.74	1309.74	1334.34	1311.74	1330.34	1331.54	1287.54	1323.54	1316.74	1283.74	1283.74
715.997	2004.54	1046.02	1325.13	1325.3	1340.3	1316.9	1312.9	1305.3	1293.7	1316.1	1308.9	1332.7	1306.5	1288.5	1292.1	1289.1	1332.3	1346.5	1346.5
716.208	1980.09	1038.58	1301.33	1302.86	1285.46	1308.66	1314.06	1272.06	1268.66	1298.26	1281.46	1288.66	1273.06	1297.06	1238.66	1284.86	1275.26	1311.86	1311.86
716.419	1977.88	1040.58	1293.1	1296.9	1284.3	1294.9	1262.5	1299.9	1266.5	1285.7	1249.1	1259.3	1266.7	1293.9	1278.1	1267.7	1256.3	1284.9	1284.9
716.629	1928.99	1033.7	1267.59	1261.62	1291.42	1254.62	1238.22	1269.22	1243.82	1240.62	1251.62	1264.42	1251.62	1241.82	1265.62	1257.62	1237.22	1264.82	1264.82
716.84	1910.9	1040.1	1245.89	1255.16	1261.96	1258.96	1275.16	1252.16	1246.96	1221.56	1237.16	1248.76	1231.76	1254.36	1239.76	1267.76	1264.36	1251.16	1251.16
717.05	1864.68	1038.54	1211.81	1216.88	1235.48	1205.68	1226.68	1247.08	1213.48	1227.88	1210.48	1245.48	1225.08	1236.48	1210.68	1248.28	1233.08	1224.48	1224.48
717.261	1863.26	1033.12	1229.64	1218.74	1209.94	1194.14	1261.14	1232.74	1258.94	1214.54	1209.14	1231.54	1228.14	1196.74	1172.14	1207.14	1217.14	1189.34	1189.34
717.471	1842.27	1042.32	1210.95	1226.42	1218.22	1211.02	1182.42	1197.62	1244.42	1219.02	1198.02	1202.82	1209.82	1189.02	1172.02	1194.02	1204.82	1207.02	1207.02
717.682	1814.05	1035.68	1197.42	1183.22	1195.22	1173.82	1158.02	1183.62	1191.82	1183.82	1176.62	1163.02	1188.42	1166.22	1218.42	1189.82	1166.02	1198.42	1198.42
717.892	1788.34	1036.88	1172.74	1157.34	1157.54	1187.34	1144.34	1144.74	1155.74	1190.34	1174.54	1132.54	1155.74	1160.94	1157.94	1139.94	1168.14	1165.14	1165.14
718.102	1758.17	1032.96	1169.8	1134.2	1118.4	1150.8	1170.6	1138	1182.4	1162	1146.4	1157	1144.8	1158.8	1138	1175.4	1139.8	1163.4	1163.4
718.312	1747.96	1051.06	1160.03	1143.76	1147.76	1115.76	1154.76	1111.16	1127.56	1118.16	1157.56	1138.36	1166.96	1167.36	1168.36	1136.16	1146.36	1144.76	1144.76
718.522	1738.67	1046.24	1143.41	1091.54	1140.14	1145.14	1122.74	1116.14	1104.74	1161.54	1146.34	1132.34	1112.14	1139.94	1149.14	1132.54	1105.14	1115.74	1115.74
718.732	1704.88	1031.44	1126.83	1133.56	1094.76	1117.96	1102.56	1126.76	1114.76	1116.16	1082.16	1124.36	1081.16	1100.16	1112.96	1129.96	1125.76	1126.76	1126.76
718.942	1683.64	1036.36	1110.89	1080.42	1105.22	1097.62	1139.42	1127.42	1096.82	1091.02	1101.42	1103.62	1072.02	1104.82	1095.82	1104.02	1090.82	1082.62	1082.62
719.152	1648.25	1024.54	1121.45	1095.18	1068.58	1088.78	1071.78	1068.38	1085.38	1093.58	1068.78	1077.78	1081.98	1099.38	1071.58	1085.78	1082.38	1074.18	1074.18
719.362	1638.56	1035.56	1096.15	1073.42	1071.42	1070.62	1089.82	1072.02	1092.42	1099.22	1094.62	1117.22	1067.42	1093.22	1062.22	1099.62	1090.62	1074.82	1074.82
719.572	1616.51	1029.86	1087.3	1049.9	1053.1	1057.3	1048.7	1041.3	1077.5	1065.7	1041.5	1078.5	1069.1	1055.9	1035.5	1077.5	1059.5	1082.3	1082.3
719.782	1599.38	1032.66	1058.38	1027.78	1038.38	1038.38	1030.98	1042.38	1054.58	1068.78	1045.38	1051.38	1043.58	1048.38	1038.98	1058.78	1054.18	1070.98	1070.98
719.992	1596.91	1030.7	1055.66	1037.86	1029.46	1046.66	1054.86	1057.86	1031.16	1036.06	1031.26	1048.26	1053.66	1047.26	1035.26	1036.86	1022.06	1051.46	1051.46
720.201	1567.39	1036.14	1022.83	1020.16	1018.96	1029.36	1029.36	1042.96	1027.36	1016.76	1003.96	1013.56	991.76	992.16	1039.96	1030.96	1025.36	1025.36	1025.36
