#Wavelength [nm]	White Std.	Dark spec	0[s]	19.59[s]	39.645[s]	59.712[s]	79.828[s]	99.928[s]	120.008[s]	140.069[s]	160.162[s]	180.242[s]	200.324[s]	220.4[s]	240.439[s]	260.487[s]	280.54[s]	300.597[s]	300.618[s]
420.156	2097.42	1032.98	151.18	142.18	152.58	160.98	161.18	152.38	163.38	165.18	139.58	163.38	143.78	138.38	165.38	163.78	154.58	179.38	179.38
420.431	2166.58	1034.42	186.44	170.04	153.64	170.64	124.84	152.24	161.24	153.64	163.24	154.84	162.84	146.84	159.64	171.24	173.84	171.64	171.64
420.706	2268.67	1032.38	149.4	117	139.6	127.6	155.2	151	146.4	153.8	137.4	142	127.2	151	153.8	160.6	156.8	137.2	137.2
420.981	2380.65	1034.3	174.987	155.12	187.32	152.92	162.72	160.12	156.52	183.52	193.12	171.72	157.12	159.32	171.92	184.32	195.32	188.72	188.72
421.256	2499.86	1033.12	184.183	176.25	179.75	159.05	186.05	153.05	199.25	169.85	160.45	168.65	179.85	175.05	178.45	127.85	159.65	186.85	186.85
421.531	2620.01	1037.86	198.533	224	161.8	203.4	180.8	181	160	181.8	198.2	202	169.2	183.8	221.4	173.8	191	184.6	184.6
421.805	2755.52	1033.32	188.7	213.3	212.7	184.5	196.9	162.1	164.3	172.9	180.5	185.1	175.5	169.1	195.1	182.5	163.1	177.9	177.9
422.08	2816.77	1034.5	195.76	195.16	203.16	199.76	179.36	174.16	192.16	199.56	205.76	184.76	174.96	194.16	184.56	196.76	192.36	178.16	178.16
422.355	3038.76	1039.42	211.467	194.8	198	196.8	208.2	215	182	200	192.6	209.4	209	188.4	198	191.8	208.3	189.2	189.2
422.63	3131.63	1042.42	217.627	233.76	196.36	216.56	210.56	213.96	199.96	213.76	244.16	194.96	206.16	240.56	224.36	184.96	225.76	222.36	222.36
422.904	3226.56	1033.84	227.713	193.18	200.78	219.78	238.98	225.18	234.58	216.78	212.98	194.18	224.98	231.98	216.78	225.18	218.58	238.58	238.58
423.179	3334.87	1036.06	218.48	214.08	232.68	210.08	234.08	228.48	228.68	212.28	228.88	219.48	217.68	217.28	220.28	210.48	228.68	201.88	201.88
423.453	3481.44	1038	231.313	229.78	213.18	218.98	245.18	231.18	224.58	199.18	211.98	220.58	218.78	225.98	239.98	238.58	230.38	239.98	239.98
423.728	3684.03	1036.5	265.18	240.58	247.58	239.18	239.18	275.78	243.98	243.18	254.78	227.98	221.98	253.98	264.78	267.78	272.98	240.38	240.38
424.002	3801.02	1039.4	264.373	262.04	251.24	264.04	258.64	277.84	270.04	257.04	252.64	250.24	223.84	266.44	245.84	244.24	267.64	251.64	251.64
424.276	3962.07	1041.64	264.23	281.13	256.93	243.93	249.13	277.73	252.33	229.13	257.33	254.33	242.93	260.73	253.13	253.93	280.13	258.13	258.13
424.551	4161.04	1032.56	267.707	302.64	272.44	289.04	274.04	292.84	281.04	298.04	264.44	260.44	291.24	295.44	296.44	274.44	281.44	266.24	266.24
424.825	4324.26	1031.8	289.4	292.8	271	302.6	268.8	287	285.4	277.8	262.6	304.2	287.6	316.4	309	275.8	277.8	275.2	275.2
425.099	4500.9	1033.58	293.933	299	299.2	321.2	258.8	285.4	311.8	287.8	274.4	325.4	268	274.2	327.4	308	267.2	270.2	270.2
425.373	4679.09	1037.64	316.953	288.82	320.42	321.62	291.22	300.22	323.82	308.22	307.02	305.42	282.82	313.62	283.02	296.82	273.42	331.42	331.42
425.647	4928.73	1028.7	323.393	294.66	333.86	306.66	308.46	306.66	301.86	313.26	304.66	315.66	323.46	274.26	304.06	322.66	296.06	289.26	289.26
425.921	5037.36	1040.08	322.793	329.86	344.46	352.66	312.46	306.06	326.66	323.06	342.26	304.66	311.26	318.06	336.26	310.66	312.06	307.46	307.46
426.195	5113.26	1036.86	338.987	328.92	335.12	307.92	333.52	352.92	329.12	316.32	332.32	296.72	312.72	339.72	323.52	324.12	328.92	332.52	332.52
426.469	5385.73	1048.76	367.673	368.34	342.94	350.94	370.34	392.94	358.34	344.34	368.74	343.94	338.14	353.14	334.34	354.94	346.94	346.74	346.74
426.743	5649.55	1032.46	358.84	343.24	354.64	354.24	356.84	375.54	339.24	348.24	341.44	369.44	378.24	354.64	360.44	375.44	347.64	374.44	374.44
427.017	5781.29	1031.36	388.793	398.46	378.06	384.66	369.26	388.66	346.26	352.46	390.86	382.06	373.46	363.66	364.66	365.86	351.86	376.26	376.26
427.291	6014.73	1031.78	396.12	371.52	350.72	388.72	407.52	370.92	397.32	354.52	367.12	371.72	399.72	365.32	370.92	384.22	399.52	363.32	363.32
427.565	6244.66	1025.82	407.747	424.68	376.08	380.68	399.28	399.48	375.48	386.68	366.08	424.48	394.48	412.88	390.48	426.28	386.48	373.28	373.28
427.838	6431.49	1028.82	418.653	388.72	395.52	409.32	380.52	393.52	419.32	396.12	393.32	422.12	408.52	405.92	393.92	412.32	423.32	409.72	409.72
428.112	6663.32	1034.92	436.08	415.68	436.88	421.48	424.88	405.28	432.08	406.68	451.28	439.88	412.28	410.28	420.68	440.88	425.08	401.88	401.88
428.385	6841.81	1028.08	451.207	420.34	448.94	452.14	411.94	413.54	444.54	425.14	444.74	442.34	423.54	426.94	445.34	430.74	407.54	449.94	449.94
428.659	7079.69	1033.64	466.987	432.32	431.72	452.92	455.32	427.32	423.32	419.92	449.52	445.72	434.72	425.92	442.92	470.32	468.12	422.52	422.52
428.932	7310.97	1039.84	477.967	474.3	485.3	429.7	439.1	464.1	454.1	444.9	471.3	466.7	486.1	433.3	455.7	451.3	481.7	463.9	463.9
429.206	7491.87	1035.78	487.833	494.3	471.3	493.9	508.9	452.3	488.9	467.1	460.5	468.3	469.9	470.5	480.7	443.7	468.9	477.9	477.9
429.479	7851.67	1030.84	512.067	504.4	491	520.4	540.4	508.2	510.8	526.2	496.8	520.8	510.4	511.8	505.6	485	498	499.8	499.8
429.753	7903.38	1034.24	505.673	495.74	488.74	504.54	505.54	501.34	504.94	493.74	495.54	487.94	527.34	517.94	509.54	469.74	507.34	505.74	505.74
430.026	8105.87	1030.06	554.827	534.36	525.16	530.56	523.36	549.16	518.76	539.96	492.56	502.56	515.36	499.16	528.96	530.56	522.76	510.36	510.36
430.299	8422.05	1032.3	570.167	494.5	550.5	555.5	550.7	543.1	538.7	549.7	550.7	532.5	533.3	532.5	526.1	555.1	530.1	531.7	531.7
430.572	8729.51	1030.92	580.1	560.7	547.7	531.1	552.7	577.7	538.1	572.9	563.3	556.1	544.9	532.3	560.9	527.5	584.1	531.3	531.3
430.845	8948.34	1036	596.327	584.66	594.46	566.06	577.26	556.26	568.06	574.26	553.86	575.66	556.06	558.86	570.46	559.46	581.06	582.86	582.86
431.118	9027.42	1038.12	577.4	554	557.4	574	581.6	568.8	588.4	577.6	584.2	586.4	553.2	567.8	549	584.8	549.8	546.6	546.6
431.391	9179.7	1035.06	607.2	574	586.8	585.4	584.6	604.4	610	606.2	578.8	582.2	588	616.8	571.4	611.2	556.4	623	623
431.664	9421.46	1038.2	626.06	600.06	616.06	626.66	629.26	639.66	575.66	610.66	607.46	578.26	583.26	598.46	629.66	596.66	600.06	583.86	583.86
431.937	9687.49	1037.26	640.053	647.32	627.52	606.32	655.12	631.12	604.72	641.32	647.72	591.92	610.72	629.32	629.12	617.72	615.92	611.72	611.72
432.21	9951.87	1038.22	668.04	659.44	647.84	650.04	660.04	648.84	652.64	620.04	655.44	656.04	655.84	629.64	621.84	674.64	614.64	653.84	653.84
432.483	10196.8	1034.36	678.76	646.16	708.16	665.96	645.36	657.36	657.96	647.36	670.16	647.76	656.36	642.56	650.56	632.96	628.96	650.56	650.56
432.755	10401.5	1038.57	696.027	685.96	679.96	684.56	678.76	651.56	679.36	664.16	686.76	693.56	668.16	674.96	665.76	668.76	679.16	686.56	686.56
433.028	10577.4	1034.7	703.693	666.96	695.76	694.76	702.96	701.16	710.76	701.76	706.56	692.36	692.76	665.16	683.16	683.16	666.76	677.16	677.16
433.301	10740.1	1030.34	732.713	701.98	696.58	688.98	712.98	707.78	694.18	663.38	722.58	691.38	689.18	695.98	692.78	692.78	705.38	689.78	689.78
433.573	10872.2	1032.19	724.547	675.28	726.28	715.48	718.28	718.68	723.08	668.68	723.28	674.08	693.68	713.88	677.68	665.28	716.88	691.28	691.28
433.846	11440.7	1036.88	748.82	776.02	766.82	775.42	762.22	749.62	731.62	727.22	728.62	798.02	730.42	733.42	742.82	768.62	743.42	769.62	769.62
434.118	11313.3	1033.88	776.313	761.18	775.38	735.78	743.58	712.98	731.98	748.98	709.58	730.98	764.18	760.38	745.78	731.38	714.18	737.98	737.98
434.391	11405	1031.44	777.233	751.3	776.6	747.7	748.3	741.3	740.5	762.3	758.9	785.5	768.5	721.5	744.3	747.9	764.5	711.9	711.9
434.663	11730.8	1037.67	804.033	808.5	761.7	743.7	762.3	764.7	765.5	767.1	784.7	795.3	760.9	747.7	777.5	760.1	754.5	747.1	747.1
434.936	12043.1	1034.76	801.633	804.6	808	790	783.4	795.6	791.2	788.8	773.8	783.4	769.6	781	795.2	770.2	772.4	795	795
435.208	12122.4	1029.16	823	796.6	807.6	804.6	788.6	822.2	794.2	796.6	788.2	811.2	789.2	778.8	792.2	792.6	786.6	799.4	799.4
435.48	12474.5	1019.28	857.393	836.26	832.66	818.86	852.46	820.46	843.46	818.66	770.86	842.46	829.06	840.66	808.26	813.66	818.86	831.86	831.86
435.752	12544.1	1028.22	859.92	849.92	826.52	831.32	811.32	822.32	835.52	830.32	848.92	825.92	783.92	832.52	826.62	839.72	808.52	829.12	829.12
436.024	12632.3	1034.96	891.933	847.6	860.8	860	881.4	839.6	803	854	831.2	809.8	821.2	830.4	807.8	822.8	817	812.8	812.8
436.296	12978.7	1048.5	892.867	878.8	898	873.6	885.4	868.6	855	849	838.4	875.2	837	866.8	884.2	855.6	875.4	843.6	843.6
436.568	13299.7	1032.78	921.993	908.66	904.66	883.46	883.86	909.66	871.86	882.06	917.66	895.66	887.66	868.46	879.66	884.26	873.66	897.66	897.66
436.84	13344.7	1036.96	918.753	928.22	898.82	892.42	924.02	898.62	916.02	896.82	884.82	864.62	894.02	855.22	881.92	889.82	891.02	890.02	890.02
437.112	13711.1	1025.68	952.717	962.85	937.65	937.45	936.65	914.85	924.65	932.65	893.25	908.65	904.65	894.25	938.25	906.25	917.05	896.45	896.45
437.384	14138	1042.02	993.407	981.54	965.54	922.54	971.94	956.14	946.74	957.94	961.74	951.14	933.54	945.74	959.54	909.54	924.74	978.34	978.34
437.656	14124.4	1027.48	995.36	957.36	954.96	951.56	971.76	969.36	955.76	961.56	948.96	936.56	933.96	960.76	953.16	956.56	966.36	949.16	949.16
437.928	14231.4	1032.08	1005.47	977.54	997.14	969.34	964.14	967.14	980.74	1004.14	959.14	988.34	958.54	951.74	973.34	952.54	996.54	962.74	962.74
438.199	14726.1	1032.86	1024.04	999.84	1015.64	997.04	992.64	1004.64	1019.24	984.64	1006.44	993.84	961.44	988.64	1005.64	1019.44	978.24	982.64	982.64
438.471	15112.5	1035.04	1063.23	1052.1	1043.9	1047.1	1069.9	1078.1	1058.3	1015.9	1046.3	1006.7	1029.9	1046.3	1011.5	985.7	1032.9	1030.7	1030.7
438.743	15031.8	1034.12	1072.36	1062.56	1039.96	1051.56	1045.56	1085.56	1023.16	1048.36	1038.36	1057.16	1002.96	1043.36	1022.36	1011.36	1034.16	1045.36	1045.36
439.014	15520.4	1040.46	1092.12	1101.12	1073.32	1049.52	1061.72	1077.72	1036.12	1058.32	1049.52	1040.52	1065.92	1071.32	1021.52	1027.42	1056.72	1047.12	1047.12
439.286	15873.8	1036.86	1111.07	1106.14	1125.74	1099.94	1120.14	1095.14	1085.74	1093.54	1094.54	1069.54	1102.34	1074.14	1032.14	1090.14	1077.14	1094.34	1094.34
439.557	15808.6	1039.7	1131.24	1118.44	1074.64	1115.04	1096.64	1097.64	1110.64	1072.64	1082.84	1097.64	1068.84	1059.84	1108.04	1094.64	1091.84	1059.64	1059.64
439.828	16376.8	1031.22	1189.03	1187.36	1124.36	1138.76	1135.36	1125.36	1143.36	1145.76	1127.76	1124.56	1116.36	1095.16	1138.56	1149.76	1089.56	1108.96	1108.96
440.1	16777.5	1033.38	1203.34	1187.94	1193.34	1210.14	1199.34	1170.94	1163.34	1166.94	1173.14	1171.34	1135.94	1138.54	1157.54	1146.94	1147.54	1155.54	1155.54
440.371	16694.5	1036.16	1205.03	1195.76	1166.76	1146.16	1173.56	1155.76	1194.36	1161.16	1153.16	1189.36	1181.36	1198.76	1157.36	1140.36	1169.96	1145.96	1145.96
440.642	17201.6	1037.98	1246.92	1211.72	1221.92	1211.12	1201.72	1209.52	1178.12	1204.32	1178.72	1180.72	1156.32	1149.32	1183.92	1201.72	1201.72	1172.32	1172.32
440.913	17586.5	1037.68	1264.41	1216.74	1224.14	1261.14	1224.74	1198.94	1193.14	1180.34	1207.94	1215.34	1196.14	1237.54	1210.74	1217.94	1219.94	1148.14	1148.14
441.184	17794	1033.34	1295.8	1266	1228.8	1214.4	1273.6	1229.6	1232.2	1228	1239.8	1231.8	1210.4	1243.2	1195.4	1247.8	1206.8	1235.4	1235.4
441.456	18180.6	1039.27	1306.31	1297.98	1250.18	1269.78	1281.98	1237.38	1260.58	1289.98	1238.38	1289.98	1271.78	1287.38	1255.38	1256.58	1239.38	1273.98	1273.98
441.727	18413.2	1035.1	1350.73	1316.2	1306.8	1305	1280.4	1291.4	1282.6	1309.8	1280.8	1276.8	1254.6	1272.4	1289.6	1268.8	1239.4	1273	1273
441.998	18848.1	1031.26	1357.91	1349.64	1358.24	1353.84	1300.04	1329.64	1309.04	1342.64	1271.44	1330.24	1320.24	1299.84	1337.44	1312.84	1340.04	1317.64	1317.64
442.268	19392.6	1031.14	1396.29	1399.96	1412.96	1373.96	1362.16	1392.96	1350.96	1346.16	1332.36	1358.36	1326.96	1343.56	1375.96	1341.16	1340.16	1326.16	1326.16
442.539	19370.6	1032.84	1391.47	1415.8	1389.2	1388.8	1385.6	1363.2	1390.4	1358.8	1367.4	1333.8	1347.6	1340.8	1341.6	1344	1383.2	1321.8	1321.8
442.81	20290	1036	1478.76	1457.36	1454.36	1426.76	1443.16	1454.16	1409.76	1439.36	1427.76	1424.96	1396.36	1403.16	1418.76	1365.76	1429.96	1410.76	1410.76
443.081	20151.4	1036.12	1492.35	1475.62	1465.82	1463.82	1438.42	1433.62	1426.42	1408.82	1408.82	1422.22	1422.42	1405.02	1415.62	1390.62	1400.22	1440.02	1440.02
443.352	20682	1037.46	1530.37	1499.1	1446.7	1469.5	1457.7	1458.9	1491.7	1467.9	1439.1	1475.3	1440.5	1449.7	1459.1	1429.1	1456.3	1445.1	1445.1
443.622	20915.1	1037.96	1538.35	1534.08	1506.68	1505.08	1513.48	1530.68	1485.88	1521.48	1487.48	1505.28	1427.88	1475.48	1478.08	1465.08	1469.68	1471.28	1471.28
443.893	21308.2	1046.38	1585.47	1557	1568	1555.6	1540	1533.8	1493.8	1531.6	1514.8	1507.4	1497.8	1519.8	1502	1516.2	1492.4	1506.4	1506.4
444.163	21839.2	1035.84	1612.65	1595.05	1590.25	1569.25	1573.65	1600.45	1587.05	1578.45	1537.45	1572.85	1551.85	1534.45	1562.85	1543.05	1539.45	1524.05	1524.05
444.434	22149.1	1029.82	1636.41	1624.74	1577.14	1595.94	1599.74	1622.14	1611.94	1559.14	1573.74	1543.74	1531.54	1581.14	1606.34	1580.54	1546.54	1542.14	1542.14
444.704	22429.9	1029.42	1674.15	1632.28	1605.68	1617.68	1658.08	1621.48	1601.48	1614.08	1610.88	1618.48	1572.28	1579.08	1581.48	1594.48	1573.48	1568.08	1568.08
444.975	22919.3	1043.28	1702.9	1676.5	1657.5	1637.7	1644.1	1644.1	1634.1	1667.1	1674.9	1635.1	1659.9	1639.5	1593.3	1626.5	1641.1	1678.7	1678.7
445.245	22974.9	1043.42	1726.39	1698.46	1680.66	1715.26	1680.86	1687.86	1637.06	1625.66	1652.66	1651.46	1685.66	1641.46	1662.06	1640.26	1641.86	1634.06	1634.06
445.515	24052.1	1036.76	1804.55	1743.62	1765.02	1736.62	1773.42	1727.42	1753.42	1714.62	1733.02	1687.42	1733.82	1696.22	1655.02	1690.22	1708.82	1703.02	1703.02
445.786	23975.5	1038.06	1793.17	1773.04	1793.44	1751.24	1759.64	1747.44	1723.84	1746.24	1745.24	1753.24	1729.04	1733.84	1710.04	1717.44	1735.04	1708.44	1708.44
446.056	24639.7	1038.32	1872.28	1878.88	1835.28	1841.68	1810.88	1810.48	1812.68	1815.28	1767.68	1835.08	1807.28	1777.48	1800.48	1768.68	1789.88	1786.48	1786.48
446.326	24847.5	1036.5	1883.19	1853.26	1838.06	1864.86	1811.86	1837.46	1835.06	1789.66	1796.26	1818.26	1805.26	1795.06	1802.86	1811.66	1807.46	1802.66	1802.66
446.596	25224.9	1029.72	1906.85	1880.98	1903.78	1864.38	1873.18	1861.38	1816.98	1853.18	1859.98	1816.98	1831.58	1840.58	1814.18	1846.98	1838.78	1807.78	1807.78
446.866	25501.2	1028.94	1937.49	1932.56	1901.96	1890.76	1920.16	1913.56	1895.96	1877.16	1875.56	1895.96	1841.76	1872.16	1835.96	1843.56	1855.76	1849.76	1849.76
447.136	25743.3	1040.24	1981.41	2012.28	1955.68	1954.08	1922.08	1904.88	1933.28	1905.08	1911.28	1880.68	1845.28	1887.68	1897.88	1882.28	1869.68	1850.08	1850.08
447.406	25906	1030.31	1974.57	1927.9	1946.5	1951.9	1889.5	1938.5	1925.1	1907.9	1901.7	1907.5	1871.7	1888.1	1885.9	1859.3	1870.3	1892.3	1892.3
447.676	26311.4	1037.42	2038.2	2005.2	1945.6	1984.8	1981.2	1980	1947.4	1937.8	1954.8	1938.6	1942.4	1936.8	1938	1945.8	1921.2	1936.8	1936.8
447.946	26827.6	1037.16	2067.4	2062.8	2031.6	2026.8	2025.6	1974	1958.2	1978.2	1974.4	1977.6	1931.4	1964.6	1982.8	1972	1964	1971.2	1971.2
448.215	26646.9	1035.72	2071.51	2048.24	2005.04	2006.24	2009.04	1963.24	1980.84	1989.04	1962.24	1952.24	1960.84	1975.64	1915.84	1929.24	1951.04	1945.84	1945.84
448.485	26791.3	1035.04	2099.41	2046.28	2069.28	2026.08	2064.68	2049.68	1992.28	2033.48	1997.88	1994.88	1973.48	1997.28	1984.88	1962.28	1998.68	1929.08	1929.08
448.755	27135.4	1034	2122.13	2091.8	2101.8	2073.2	2094.8	2019	2023.8	2040.6	2023	2015.4	2044.2	2042	2008.8	2009.6	1966.8	1997.6	1997.6
449.024	27508	1047.1	2188.48	2171.88	2110.28	2088.48	2126.08	2084.48	2101.28	2074.48	2092.08	2080.08	2112.48	2065.08	2061.08	2077.08	2034.28	2062.28	2062.28
449.294	27269.9	1039.18	2164.89	2125.16	2106.56	2096.96	2083.16	2083.56	2082.16	2086.16	2072.56	2036.96	2058.76	2045.76	2054.56	2009.16	2049.76	2003.36	2003.36
449.563	27330.9	1039	2192.32	2148.92	2168.52	2097.92	2136.92	2106.32	2128.12	2108.32	2098.72	2064.72	2063.12	2099.32	2087.52	2101.12	2055.72	2069.12	2069.12
449.833	27548.3	1036.08	2219.58	2156.78	2176.78	2102.58	2137.18	2156.38	2106.38	2120.38	2135.98	2132.98	2070.98	2115.58	2113.18	2094.38	2100.78	2100.78	2100.78
450.102	27971.1	1034	2253.73	2210.2	2235.8	2204.2	2166.8	2172	2158.8	2166.8	2186.8	2194.8	2134	2162.6	2110	2165	2126.2	2123.8	2123.8
450.372	27963.5	1031.04	2292.39	2215.06	2207.66	2193.06	2193.26	2181.46	2182.66	2132.86	2178.06	2114.06	2153.66	2132.06	2119.06	2134.66	2131.66	2099.66	2099.66
450.641	27496.9	1037.3	2245.01	2196.08	2185.28	2189.28	2192.88	2169.08	2187.88	2152.48	2130.48	2141.68	2153.28	2117.28	2080.08	2068.08	2139.28	2095.28	2095.28
450.91	27003.1	1040.94	2214.68	2207.28	2156.68	2182.08	2176.28	2165.88	2120.28	2114.08	2110.68	2154.88	2109.28	2140.28	2108.68	2088.88	2101.28	2056.48	2056.48
451.179	26860.6	1046	2212.79	2177.32	2215.12	2211.72	2186.12	2171.72	2131.32	2146.72	2127.52	2121.12	2140.92	2124.12	2121.12	2110.32	2069.92	2106.12	2106.12
451.448	27428.9	1034.82	2286.38	2261.05	2232.05	2191.05	2206.85	2236.45	2178.25	2191.65	2218.45	2168.25	2190.05	2157.45	2211.25	2170.25	2170.05	2155.05	2155.05
451.717	26384.5	1035.42	2251.57	2211.7	2178.7	2163.1	2168.9	2150.5	2132.9	2146.1	2125.1	2155.1	2135.9	2115.3	2122.3	2115.3	2116.5	2097.7	2097.7
451.986	26978.5	1037.58	2293.15	2264.88	2241.48	2194.08	2218.28	2225.48	2191.88	2193.48	2193.48	2179.08	2145.08	2177.68	2189.88	2156.08	2164.48	2145.68	2145.68
452.255	26369.4	1034.68	2278.61	2236.88	2237.48	2186.48	2214.68	2171.68	2158.28	2144.88	2155.08	2152.88	2168.08	2120.68	2139.68	2123.08	2143.28	2176.08	2176.08
452.524	25906.6	1030.22	2253.18	2184.78	2161.78	2170.38	2158.98	2161.58	2105.78	2131.18	2123.58	2128.18	2106.98	2148.98	2113.18	2153.78	2111.38	2112.18	2112.18
452.793	26166	1029.52	2271.77	2266.1	2192.7	2227.7	2195.5	2175.1	2167.7	2162.7	2183.1	2169.5	2136.9	2156.7	2130.9	2129.1	2146.5	2111.9	2111.9
453.062	25685.7	1042.48	2236.42	2200.82	2225.82	2153.82	2212.62	2142.42	2158.62	2140.82	2083.62	2122.22	2099.42	2103.02	2103.82	2065.42	2097.82	2115.22	2115.22
453.331	25412.9	1037.78	2226.32	2199.92	2158.32	2184.72	2171.32	2176.32	2161.92	2155.92	2092.92	2101.12	2133.92	2150.32	2132.32	2117.32	2098.32	2123.52	2123.52
453.6	24989.8	1038.28	2197.59	2156.66	2159.26	2111.26	2123.46	2166.86	2120.26	2097.66	2073.46	2088.66	2119.26	2095.86	2141.26	2072.86	2083.66	2064.06	2064.06
453.868	24542.7	1032.74	2162.42	2163.62	2165.22	2124.42	2146.82	2136.22	2087.82	2073.02	2069.42	2090.22	2093.82	2079.22	2090.02	2078.42	2053.22	2048.02	2048.02
454.137	24320.4	1044.74	2191.93	2168.06	2151.26	2095.66	2094.26	2109.46	2082.86	2083.66	2090.06	2103.46	2038.06	2070.46	2068.86	2041.26	2055.86	2040.26	2040.26
454.405	23810.9	1038.72	2141.23	2070.9	2099.3	2080.9	2094.7	2081.5	2089.9	2068.1	2034.5	2033.3	2025.7	2024.9	2070.3	2040.3	2028.5	1973.3	1973.3
454.674	23436.6	1027.22	2131.18	2104.78	2064.38	2020.18	2044.18	2057.78	2040.58	2044.58	2054.58	2030.98	1970.58	1970.58	1971.98	2012.98	2009.18	1989.78	1989.78
454.942	23098.7	1031.28	2101.49	2087.82	2052.62	2041.62	2021.82	2061.22	2017.42	2030.82	2016.02	2022.62	2000.62	1983.02	1996.02	2019.82	1959.62	2032.62	2032.62
455.211	22795.9	1041.18	2088.77	2072.04	2024.24	2030.04	2022.44	2023.04	2021.44	1983.24	1982.04	2020.24	1991.44	1993.44	2004.64	1914.64	1983.04	1984.24	1984.24
455.479	21681.6	1036.92	2005.16	1954.36	1913.56	1962.56	1959.36	1914.96	1936.16	1905.96	1889.56	1932.16	1949.96	1878.76	1909.16	1859.36	1856.56	1890.76	1890.76
455.747	21813.5	1031.04	2063.11	1995.38	1969.98	1983.58	1991.78	1966.78	1943.78	1947.18	1937.78	1927.98	1938.38	1901.98	1949.58	1906.18	1874.38	1859.78	1859.78
456.016	21753.6	1031.9	2035.85	1989.98	2002.78	1983.98	2005.58	1963.98	1935.98	1954.18	1945.58	1941.18	1947.58	1920.18	1950.38	1910.58	1879.78	1922.38	1922.38
456.284	20947.2	1036.62	2000.01	1978.28	1937.08	1926.68	1928.28	1924.08	1892.68	1907.68	1915.28	1864.08	1896.08	1891.88	1884.88	1877.28	1872.28	1900.48	1900.48
456.552	20825.3	1024.02	1983.55	1921.08	1954.88	1931.68	1937.28	1881.08	1873.28	1899.08	1901.68	1898.28	1853.88	1883.08	1869.08	1875.28	1888.28	1873.68	1873.68
456.82	20055.3	1038.72	1942.33	1877.8	1874.6	1887.4	1837.4	1830.2	1818.4	1836.6	1816.4	1824.4	1794.6	1807	1812.8	1846.2	1830.8	1785	1785
457.088	19285	1038.28	1893.09	1833.96	1800.96	1835.76	1775.36	1783.96	1770.16	1798.16	1711.76	1759.76	1800.56	1726.56	1774.76	1733.76	1784.56	1726.56	1726.56
457.356	19201.7	1026.76	1864.75	1812.48	1849.48	1810.08	1815.48	1796.88	1760.88	1811.48	1754.68	1793.88	1793.28	1776.28	1787.68	1763.08	1755.28	1718.28	1718.28
457.624	18906.7	1034.88	1877.34	1821.54	1826.74	1825.54	1788.34	1809.74	1794.94	1782.94	1773.94	1762.34	1742.94	1757.74	1743.94	1741.94	1740.34	1737.54	1737.54
457.892	18587.7	1038.16	1838.64	1806.84	1786.64	1785.04	1761.04	1745.84	1767.04	1736.84	1751.84	1694.44	1719.24	1748.84	1736.04	1734.64	1734.44	1741.44	1741.44
458.16	17760.1	1036.26	1771.85	1719.52	1728.72	1723.72	1701.12	1713.92	1714.72	1664.72	1648.12	1684.32	1684.92	1623.32	1682.92	1699.72	1680.72	1658.92	1658.92
458.428	17757.5	1032.9	1765.32	1736.72	1732.52	1683.12	1685.52	1676.72	1684.92	1637.32	1662.92	1672.52	1650.92	1633.32	1663.12	1614.92	1636.52	1648.12	1648.12
458.695	17149.1	1038.64	1729.62	1681.22	1685.42	1659.62	1636.22	1602.82	1645.62	1631.22	1644.02	1633.62	1604.02	1630.82	1581.02	1597.02	1620.82	1599.02	1599.02
458.963	17315.4	1036.06	1730.69	1669.16	1690.36	1679.96	1666.76	1687.36	1656.16	1664.96	1651.76	1664.76	1637.16	1628.56	1630.36	1646.16	1595.96	1626.76	1626.76
459.231	16807.7	1032.28	1705.77	1644.5	1642.5	1637.5	1654.3	1645.5	1598.5	1608.1	1588.1	1616.1	1586.9	1558.9	1595.9	1588.5	1597.9	1581.3	1581.3
459.498	16268.3	1031.64	1657.11	1625.44	1582.04	1577.04	1595.04	1555.64	1585.84	1581.44	1548.44	1550.64	1564.64	1570.84	1550.24	1542.84	1541.84	1543.04	1543.04
459.766	16266.5	1041.58	1668.53	1634.06	1602.66	1660.26	1585.06	1560.46	1558.26	1561.06	1562.86	1523.86	1545.46	1548.66	1558.26	1554.46	1522.86	1540.06	1540.06
460.033	16057	1041.32	1633.74	1609.34	1575.34	1615.74	1589.34	1565.94	1560.54	1571.74	1564.14	1573.34	1551.94	1548.74	1519.74	1510.14	1532.34	1525.14	1525.14
460.301	15771.6	1043.62	1636.09	1583.02	1534.82	1567.62	1535.02	1520.42	1550.42	1546.62	1508.42	1531.82	1473.02	1496.02	1512.82	1513.02	1537.62	1470.02	1470.02
460.568	15472.1	1030.6	1597.83	1563.5	1569.9	1534.3	1529.1	1482.1	1505.3	1500.3	1513.7	1523.5	1462.9	1463.5	1460.3	1517.7	1494.1	1481.9	1481.9
460.835	15294.5	1032.9	1577.68	1579.88	1520.88	1535.88	1522.28	1477.88	1490.08	1504.68	1478.28	1504.88	1470.48	1483.08	1471.88	1484.68	1452.28	1445.28	1445.28
461.103	15218.3	1041.06	1568.45	1506.32	1532.32	1494.52	1502.92	1499.92	1454.92	1481.32	1480.32	1495.72	1470.32	1468.12	1464.92	1474.92	1457.52	1456.72	1456.72
461.37	14572.1	1031.22	1497.83	1479.16	1473.96	1426.96	1450.36	1466.56	1424.96	1446.16	1425.16	1434.36	1384.96	1428.96	1440.76	1386.76	1422.16	1412.36	1412.36
461.637	14550.4	1040.54	1534.78	1522.98	1458.78	1471.58	1470.58	1467.58	1459.38	1454.78	1448.78	1446.98	1443.78	1418.38	1445.38	1402.98	1399.18	1421.58	1421.58
461.904	14394.5	1040.22	1509.78	1459.38	1464.58	1452.58	1440.38	1458.18	1435.78	1409.18	1421.78	1446.78	1419.78	1389.58	1386.78	1411.18	1429.78	1413.58	1413.58
462.171	14249.6	1037.28	1511.04	1491.11	1454.51	1422.71	1441.71	1436.31	1415.11	1414.91	1388.71	1443.31	1434.71	1353.31	1403.91	1404.71	1383.91	1372.51	1372.51
462.438	13937.9	1028.1	1495.24	1449.04	1442.84	1430.04	1421.04	1435.44	1411.24	1395.64	1362.24	1388.04	1353.64	1363.44	1370.24	1394.44	1366.04	1356.84	1356.84
462.705	13985.5	1044.7	1512.59	1485.46	1470.46	1445.46	1448.66	1440.06	1415.06	1463.06	1404.26	1387.06	1401.46	1435.26	1417.46	1390.86	1413.86	1427.66	1427.66
462.972	13548.7	1047.4	1485.19	1435.79	1424.39	1394.79	1407.39	1418.19	1353.79	1395.79	1388.59	1361.39	1363.79	1347.99	1365.59	1356.39	1327.79	1347.59	1347.59
463.239	13694.1	1043.74	1491.52	1445.52	1430.32	1410.72	1402.12	1387.32	1384.72	1403.52	1361.12	1407.72	1375.72	1386.12	1378.52	1360.32	1348.32	1373.12	1373.12
463.505	13198.2	1040.1	1459.17	1405.24	1384.84	1377.04	1379.64	1361.64	1363.24	1328.44	1356.64	1374.04	1323.84	1352.24	1303.24	1326.24	1342.84	1309.84	1309.84
463.772	13333.8	1040.64	1468.37	1431.3	1400.5	1386.3	1381.7	1358.5	1342.9	1353.7	1353.3	1365.5	1346.9	1358.7	1356.5	1356.3	1315.5	1349.3	1349.3
464.039	13033.5	1035.56	1453.14	1422.34	1350.94	1390.54	1355.34	1365.14	1347.74	1353.34	1320.74	1326.54	1315.14	1328.74	1303.34	1304.94	1308.14	1312.94	1312.94
464.306	12955.3	1039.9	1453.02	1366.95	1364.95	1345.75	1341.35	1357.75	1365.35	1307.55	1346.55	1307.75	1320.95	1339.55	1324.95	1345.35	1309.35	1318.15	1318.15
464.572	12996.8	1033.36	1478.55	1427.08	1367.68	1397.88	1354.68	1371.08	1380.68	1336.68	1375.28	1333.28	1329.28	1346.48	1322.88	1310.88	1338.08	1341.68	1341.68
464.839	12916.5	1039.6	1446.83	1411.7	1438.7	1360.5	1380.1	1354.9	1362.5	1321.5	1368.1	1337.7	1354.7	1354.7	1288.7	1331.5	1346.9	1336.3	1336.3
465.105	12735.1	1032.48	1425.87	1412.54	1402.94	1357.94	1382.54	1354.74	1348.14	1376.74	1338.74	1325.34	1335.74	1350.34	1343.94	1290.14	1318.94	1322.14	1322.14
465.372	12546.4	1034.94	1456.9	1406.7	1404.1	1362.3	1345.3	1363.3	1348.7	1341.1	1344.1	1336.7	1323.5	1335.3	1308.1	1317.9	1346.7	1271.5	1271.5
465.638	12280.5	1034.9	1430.02	1378.22	1348.62	1343.82	1337.62	1336.62	1352.82	1316.22	1300.82	1312.42	1301.62	1334.42	1318.82	1255.82	1320.62	1300.82	1300.82
465.904	12254.1	1037.36	1427.71	1387.58	1370.78	1353.98	1342.98	1343.38	1294.98	1303.78	1312.18	1278.78	1294.98	1315.58	1332.18	1310.78	1285.78	1291.38	1291.38
466.17	12171.3	1042.98	1399.98	1388.38	1366.78	1318.98	1288.58	1295.58	1302.38	1325.98	1324.58	1310.18	1266.58	1304.38	1277.78	1296.58	1296.58	1273.38	1273.38
466.437	12023.6	1032.64	1406.37	1354.7	1332.5	1320.9	1274.3	1326.1	1304.1	1292.3	1298.5	1281.1	1297.7	1290.5	1299.3	1300.9	1268.7	1278.3	1278.3
466.703	11969.2	1036.5	1415.49	1325.22	1321.42	1302.22	1320.02	1289.42	1312.42	1287.42	1281.22	1288.42	1262.82	1289.82	1276.62	1270.62	1279.42	1270.02	1270.02
466.969	11916.4	1027.48	1405.65	1380.32	1360.32	1313.32	1297.52	1312.12	1281.12	1302.12	1281.52	1280.12	1254.12	1272.52	1260.92	1281.12	1274.52	1250.72	1250.72
467.235	11688.9	1048.54	1396.54	1366.54	1340.74	1296.94	1296.74	1330.54	1298.34	1300.74	1263.94	1282.34	1242.14	1264.54	1231.14	1258.14	1266.94	1254.34	1254.34
467.501	11871.9	1041.86	1426.57	1361.1	1342.5	1341.7	1300.9	1343.7	1328.7	1331.3	1296.3	1306.1	1320.3	1318.3	1254.5	1241.7	1277.3	1254.7	1254.7
467.767	11698.4	1031.8	1394.21	1347.81	1346.21	1367.01	1331.21	1331.81	1292.81	1295.81	1350.61	1310.61	1314.21	1295.01	1285.01	1284.61	1302.61	1286.21	1286.21
468.033	11582.6	1032.74	1392.57	1353.04	1341.44	1330.44	1321.24	1326.44	1300.44	1284.64	1291.84	1307.24	1250.84	1249.24	1257.64	1257.44	1279.84	1250.04	1250.04
468.299	11393.1	1035.92	1381.37	1361.9	1310.9	1318.1	1287.1	1291.3	1301.1	1295.9	1294.7	1257.7	1260.5	1251.7	1227.5	1262.3	1253.9	1225.1	1225.1
468.564	11450.2	1035.98	1396.69	1319.62	1287.02	1326.22	1328.22	1307.02	1276.42	1244.62	1303.22	1259.62	1233.42	1250.02	1279.82	1252.42	1246.62	1256.42	1256.42
468.83	11283.4	1030.68	1388.42	1329.82	1328.82	1330.42	1313.22	1272.02	1275.82	1295.42	1290.62	1258.22	1270.22	1287.42	1269.02	1249.62	1266.62	1223.42	1223.42
469.096	11187.6	1033.16	1385.73	1308.4	1301.4	1284	1293.4	1265.6	1247.4	1277	1285.8	1295.2	1284	1283.6	1264.8	1197.2	1242	1235.8	1235.8
469.362	11150.6	1042.5	1359.36	1341.96	1328.56	1328.36	1297.56	1281.76	1278.76	1303.36	1277.76	1264.56	1230.76	1271.56	1246.16	1208.36	1265.56	1247.96	1247.96
469.627	11077.8	1048.24	1383.6	1306.4	1336.4	1329.8	1309.6	1309	1322.6	1302.2	1291.2	1287.6	1280.8	1239	1221.2	1254	1251.2	1211.8	1211.8
469.893	11116.3	1040.88	1393.29	1341.76	1313.76	1317.16	1305.56	1315.76	1308.56	1274.36	1256.36	1294.76	1277.76	1265.16	1265.76	1255.76	1272.56	1245.36	1245.36
470.158	11116.1	1030.18	1398.34	1351.34	1330.64	1331.94	1335.74	1280.94	1285.94	1304.34	1264.94	1290.14	1274.74	1290.14	1263.74	1261.94	1233.14	1255.34	1255.34
470.424	10895.8	1062.06	1392.72	1341.52	1297.32	1307.52	1323.32	1277.72	1283.92	1263.32	1250.72	1274.32	1261.92	1272.72	1265.52	1207.52	1223.12	1199.12	1199.12
470.689	10940.9	1036.12	1389.76	1334.96	1294.96	1307.36	1293.96	1335.96	1291.16	1294.36	1274.56	1302.96	1272.56	1249.36	1286.36	1234.96	1247.16	1240.56	1240.56
470.954	10801.6	1031.44	1382.15	1327.28	1315.28	1292.88	1292.88	1279.68	1277.48	1275.08	1225.28	1295.08	1257.08	1236.48	1237.28	1228.28	1258.68	1239.68	1239.68
471.22	10696	1037.04	1386.02	1331.02	1291.22	1282.02	1275.02	1253.62	1263.02	1268.82	1216.22	1258.82	1243.82	1200.22	1242.22	1243.22	1227.02	1218.82	1218.82
471.485	10713.5	1039.32	1369.43	1324.56	1317.76	1295.96	1293.36	1283.76	1278.16	1249.76	1254.96	1255.56	1248.36	1228.16	1222.56	1255.16	1246.16	1209.76	1209.76
471.75	10715.2	1036.04	1400.23	1345.83	1319.03	1308.43	1324.43	1286.23	1301.83	1305.03	1252.63	1264.63	1245.63	1283.83	1258.43	1258.83	1215.03	1236.83	1236.83
472.015	10608.6	1036.94	1406.83	1319.7	1301.9	1305.1	1310.3	1283.1	1290.1	1256.1	1280.9	1248.9	1263.1	1291.1	1241.9	1210.7	1251.5	1229.1	1229.1
472.28	10616.4	1040.75	1405.74	1328.74	1285.94	1303.54	1297.54	1286.74	1253.74	1274.94	1266.54	1317.74	1233.34	1233.74	1233.54	1238.74	1230.34	1259.94	1259.94
472.545	10487.6	1035.46	1401.17	1336.3	1321.7	1300.3	1332.5	1286.1	1293.3	1221.1	1274.7	1262.9	1237.1	1231.9	1277.9	1217.5	1243.9	1242.1	1242.1
472.81	10429.2	1038.32	1403.36	1337.16	1307.96	1306.96	1248.56	1291.96	1304.36	1248.16	1273.76	1253.96	1258.96	1243.56	1249.16	1252.16	1196.76	1216.56	1216.56
473.075	10434.3	1040.34	1414.7	1363.7	1346.3	1286.7	1286.1	1295.1	1255.5	1272.7	1288.1	1270.3	1244.7	1251.1	1240.1	1235.9	1235.3	1227.3	1227.3
473.34	10375.5	1027.08	1406.14	1366.74	1319.14	1323.94	1298.54	1283.14	1297.34	1281.94	1316.34	1278.94	1253.94	1253.34	1293.74	1252.74	1225.54	1208.14	1208.14
473.605	10408.3	1033.52	1420.9	1358.3	1334.5	1333.7	1307.9	1280.1	1310.9	1291.5	1288.5	1255.3	1238.9	1251.9	1281.7	1233.3	1239.9	1267.5	1267.5
473.869	10335.1	1034.17	1423.79	1339.92	1350.72	1265.72	1318.32	1296.52	1305.92	1285.72	1248.12	1238.52	1288.52	1273.12	1237.12	1240.12	1233.12	1256.92	1256.92
474.134	10361.3	1030.32	1415.28	1369.08	1332.28	1297.88	1302.28	1303.68	1278.88	1303.48	1274.68	1258.28	1279.28	1235.88	1262.88	1248.48	1243.28	1249.08	1249.08
474.399	10292	1045.74	1407.85	1329.72	1340.92	1307.72	1298.72	1318.92	1265.92	1270.92	1267.92	1269.12	1267.52	1242.52	1271.12	1270.92	1254.92	1233.72	1233.72
474.663	10273.1	1045.62	1416.71	1392.04	1359.44	1306.44	1336.04	1329.64	1288.84	1277.44	1292.24	1289.24	1249.24	1267.04	1276.64	1255.04	1271.04	1244.24	1244.24
474.928	10243.8	1026.08	1434.63	1371.36	1334.16	1322.36	1362.76	1315.76	1322.16	1281.36	1292.16	1277.96	1270.56	1270.36	1283.96	1257.36	1232.76	1257.16	1257.16
475.192	10164.9	1036.3	1435.11	1370.84	1357.24	1354.04	1318.24	1287.04	1260.84	1263.84	1318.24	1268.24	1283.24	1277.44	1252.84	1220.64	1236.04	1240.24	1240.24
475.457	10254.6	1037.64	1438.9	1356.3	1391.5	1333.5	1309.7	1321.9	1314.9	1284.7	1293.9	1272.1	1296.9	1283.3	1268.1	1284.9	1259.1	1297.7	1297.7
475.721	10234.6	1039.1	1444.1	1371.9	1371.3	1336.3	1314.7	1336.5	1310.7	1306.3	1288.5	1292.9	1288.9	1292.5	1270.5	1275.3	1226.9	1275.7	1275.7
475.985	10273.7	1032.74	1466.67	1396.94	1386.34	1385.14	1330.94	1328.74	1335.34	1318.34	1321.74	1305.94	1286.14	1281.14	1280.94	1309.14	1266.94	1265.74	1265.74
476.25	10338.7	1033.12	1484.93	1368.4	1367.8	1379.8	1325.4	1366.4	1330.6	1321.4	1318.6	1286.2	1298.4	1311	1292.8	1256.2	1309.2	1279.4	1279.4
476.514	10362.4	1028.08	1486.43	1413.96	1379.76	1361.96	1361.96	1333.56	1340.96	1339.76	1304.56	1304.96	1272.96	1292.16	1310.36	1278.96	1256.56	1287.56	1287.56
476.778	10455.6	1039.82	1495.77	1397.04	1378.04	1388.64	1406.44	1362.24	1353.64	1351.44	1335.04	1349.04	1317.64	1330.04	1337.04	1296.84	1327.24	1281.04	1281.04
477.042	10480.3	1045.53	1510.65	1417.52	1423.92	1397.72	1365.52	1371.92	1386.12	1357.52	1352.92	1339.32	1339.52	1369.12	1340.52	1324.32	1352.72	1309.52	1309.52
477.306	10628.3	1031.24	1526.88	1475.08	1460.88	1407.08	1411.48	1395.08	1404.48	1393.08	1361.68	1373.48	1337.68	1362.68	1328.28	1323.08	1336.88	1336.88	1336.88
477.57	10558.1	1035.74	1531.5	1469.5	1459.7	1392.9	1397.1	1399.9	1418.7	1380.7	1401.3	1344.9	1320.5	1344.1	1334.3	1340.5	1330.1	1308.7	1308.7
477.834	10622	1037.58	1543.83	1446.9	1458.1	1419.1	1424.5	1411.1	1410	1377.7	1363.3	1353.5	1354.7	1353.5	1381.3	1346.3	1322.9	1343.7	1343.7
478.098	10753.8	1033.34	1554.74	1502.54	1453.74	1456.74	1419.74	1431.54	1412.34	1389.34	1389.74	1434.34	1349.14	1385.34	1389.14	1376.94	1319.54	1310.14	1310.14
478.362	10730.5	1035.66	1564.9	1491.1	1443.5	1478.7	1444.1	1408.1	1435.7	1404.7	1402.1	1395.1	1378.7	1396.7	1379.9	1373.3	1400.1	1359.7	1359.7
478.626	11036.7	1029.96	1613.86	1525.86	1502.26	1457.86	1499.66	1456.46	1433.86	1455.66	1421.66	1421.26	1422.66	1413.86	1385.26	1413.26	1409.86	1406.46	1406.46
478.89	10958.1	1033.64	1616.35	1457.62	1517.62	1493.22	1441.22	1453.02	1441.42	1484.82	1404.22	1445.82	1428.02	1417.22	1399.82	1375.02	1376.62	1398.42	1398.42
479.153	11088.4	1024.98	1642.02	1554.62	1549.02	1540.62	1502.22	1472.02	1470.42	1462.82	1455.82	1416.82	1421.62	1438.02	1397.02	1412.62	1425.82	1381.82	1381.82
479.417	11133.5	1031.36	1679.28	1539.28	1521.68	1514.48	1548.28	1488.88	1428.08	1467.28	1448.88	1454.68	1430.08	1434.88	1461.28	1385.48	1431.68	1414.68	1414.68
479.681	11266.8	1040.16	1695.49	1597.22	1553.02	1584.82	1538.02	1523.62	1508.42	1487.42	1507.02	1505.22	1474.62	1490.62	1469.62	1486.82	1461.22	1405.62	1405.62
479.944	11401.1	1038.86	1718.46	1626.26	1577.26	1601.66	1571.86	1575.06	1558.46	1532.86	1501.86	1504.26	1492.46	1505.66	1468.46	1496.26	1470.86	1462.66	1462.66
480.208	11477.7	1039.04	1743.3	1638.9	1636.1	1626.9	1617.5	1581.5	1519.5	1573.1	1506.9	1504.1	1482.9	1479.3	1501.5	1511.9	1453.9	1473.5	1473.5
480.471	11500.4	1035.86	1753.1	1680.83	1632.83	1556.23	1618.43	1580.43	1590.43	1535.23	1527.63	1553.23	1482.43	1525.43	1500.63	1501.03	1504.03	1452.63	1452.63
480.734	11539.4	1041.58	1751.85	1646.18	1638.18	1594.98	1615.38	1583.98	1589.18	1577.38	1546.98	1542.38	1517.98	1540.98	1520.18	1533.98	1531.58	1473.58	1473.58
480.998	11647.5	1037.62	1780.81	1701.74	1647.34	1601.74	1621.14	1599.34	1606.94	1583.74	1566.54	1596.14	1530.34	1502.34	1510.54	1529.74	1574.54	1496.34	1496.34
481.261	11911.1	1038.86	1819.87	1735.4	1697.2	1651.8	1661.2	1646.4	1674.8	1582.6	1626.2	1626.2	1602	1591	1589.4	1571.4	1560.6	1568.2	1568.2
481.524	11923.7	1028.44	1845.55	1726.68	1678.88	1650.08	1666.48	1630.08	1662.08	1626.88	1598.68	1593.68	1587.48	1568.88	1582.28	1588.68	1605.08	1569.28	1569.28
481.787	11986.2	1041.52	1866.21	1768.28	1727.08	1690.08	1708.48	1641.68	1637.48	1646.28	1629.08	1607.68	1605.28	1595.88	1621.48	1623.08	1587.68	1555.48	1555.48
482.051	12246.3	1045	1908.53	1789.66	1774.66	1712.86	1720.26	1728.66	1682.26	1673.06	1694.26	1646.26	1662.06	1651.66	1622.06	1660.46	1616.26	1640.26	1640.26
482.314	12297	1043.52	1903.48	1819.28	1764.88	1722.88	1755.28	1710.68	1695.28	1650.48	1655.68	1665.68	1655.88	1651.48	1660.68	1632.28	1623.48	1601.48	1601.48
482.577	12406.5	1045.23	1953.48	1778.88	1779.28	1744.48	1788.08	1733.28	1713.48	1716.48	1691.28	1684.08	1680.28	1690.48	1691.88	1686.28	1665.68	1659.28	1659.28
482.84	12674.9	1029.76	2026.03	1859.9	1825.3	1815.5	1853.5	1792.1	1752.5	1697.9	1714.5	1748.3	1680.7	1681.9	1710.7	1693.1	1705.3	1654.1	1654.1
483.102	12501.2	1028.06	1981.07	1832.94	1831.34	1798.14	1794.74	1765.54	1794.34	1736.94	1717.74	1695.34	1715.54	1684.14	1705.34	1712.74	1684.54	1672.74	1672.74
483.365	12715.6	1031.74	2037.95	1890.68	1800.88	1829.48	1792.28	1766.28	1791.08	1752.88	1724.88	1737.48	1718.48	1718.08	1702.08	1702.28	1715.08	1687.08	1687.08
483.628	12905.9	1024.34	2061.13	1935.4	1917.8	1870.4	1834.2	1828	1844.8	1810.8	1745	1786.8	1750.6	1756.6	1803.2	1766.2	1729	1720.4	1720.4
483.891	12874	1026	2085.87	1939.6	1891.6	1879.6	1864.8	1805	1843.6	1818.4	1825.6	1754.8	1752	1764.6	1761.4	1742.2	1768.2	1725.6	1725.6
484.154	13190.5	1035.34	2132.78	1981.18	1943.18	1920.38	1888.58	1931.78	1845.18	1872.18	1846.18	1859.18	1805.58	1835.38	1827.18	1806.98	1810.38	1780.98	1780.98
484.416	13314.3	1034.52	2170.3	1988.5	2003.1	1973.1	1958.7	1920.1	1929.5	1925.3	1869.3	1894.7	1886.5	1851.3	1885.5	1837.7	1840.7	1814.9	1814.9
484.679	13283.3	1036.18	2182.15	2017.22	1989.82	1962.82	1915.02	1922.82	1940.22	1912.82	1848.22	1849.82	1875.02	1841.22	1854.22	1824.62	1823.82	1823.02	1823.02
484.941	13597.6	1035.84	2256.32	2086.72	2060.92	2025.52	1974.72	1975.92	1944.12	1945.12	1927.72	1909.52	1908.72	1919.12	1901.52	1887.72	1827.92	1845.32	1845.32
485.204	13614.5	1041.66	2233.39	2097.86	2099.86	2018.06	2016.26	2017.86	1979.26	1979.86	1942.46	1927.46	1927.66	1869.46	1879.66	1893.86	1873.26	1905.06	1905.06
485.466	13767.4	1034.94	2297.08	2103.48	2125.48	2079.68	2061.48	2031.68	1964.48	2014.88	1977.88	1963.28	1929.08	1949.88	1880.08	1939.08	1897.08	1893.08	1893.08
485.729	13726.4	1033.48	2304.43	2125.56	2091.76	2042.96	2051.76	2007.56	1967.56	1979.76	2004.36	1990.16	1935.16	1965.36	1917.16	1942.76	1861.56	1879.56	1879.56
485.991	13966	1008.18	2338.72	2136.52	2111.52	2077.12	2080.92	2086.52	2024.12	2005.92	2035.32	2002.12	1960.12	1952.52	1980.72	1961.92	1961.52	1961.32	1961.32
486.253	14150.9	1041.58	2396.7	2199.1	2179.4	2124.4	2132.3	2088.1	2092.1	2082.3	2011.2	1994.2	2066.8	2002.1	2022.7	1969.7	1976.9	1984.1	1984.1
486.516	14360.2	1045.32	2410.71	2263.38	2212.58	2186.18	2165.78	2145.18	2107.58	2118.78	2087.78	2065.98	2041.38	2050.78	2039.38	2027.28	2037.18	1985.38	1985.38
486.778	14360.1	1042.54	2449.29	2283.62	2236.82	2200.62	2169.02	2164.22	2145.42	2112.82	2119.82	2095.02	2083.02	2013.02	2048.82	2082.42	1997.22	2027.82	2027.82
487.04	14644.7	1037.32	2492.51	2292.71	2224.31	2244.71	2199.11	2158.71	2145.11	2168.11	2131.11	2097.31	2131.71	2078.91	2076.91	2102.91	2076.91	2058.51	2058.51
487.302	14709.7	1041.56	2523.53	2315.4	2276.6	2224.2	2224	2231	2180.6	2162.4	2132	2139	2121.2	2135	2122.6	2116.8	2044.8	2079.4	2079.4
487.564	14827.2	1033.62	2555.34	2358.34	2330.94	2246.14	2284.34	2224.14	2171.54	2201.14	2156.74	2134.34	2169.14	2119.14	2136.74	2143.94	2080.34	2119.14	2119.14
487.826	15072.3	1031.66	2591.52	2420.52	2340.92	2339.92	2301.12	2287.72	2250.32	2241.32	2173.32	2203.12	2178.92	2180.72	2194.52	2119.32	2129.12	2147.12	2147.12
488.088	15093.7	1032.78	2624.11	2411.18	2349.78	2339.78	2291.18	2322.18	2283.78	2236.98	2227.58	2214.78	2228.38	2194.38	2171.58	2160.78	2146.38	2125.38	2125.38
488.35	15289.4	1035.54	2655.48	2475.15	2417.35	2403.55	2354.75	2321.35	2291.15	2290.55	2265.95	2242.35	2290.35	2251.75	2222.55	2195.75	2182.35	2200.15	2200.15
488.612	15356	1039.88	2665.37	2471.7	2430.7	2405.9	2382.3	2332.7	2312.7	2296.5	2292.1	2279.7	2288.7	2232.3	2222.7	2210.5	2232.3	2199.3	2199.3
488.873	15637.7	1040.46	2740.66	2579.46	2459.26	2437.66	2414.06	2403.06	2401.06	2352.46	2352.26	2331.86	2300.86	2250.86	2274.26	2274.66	2296.46	2234.26	2234.26
489.135	15658.5	1037.58	2757.07	2566.14	2487.54	2495.94	2428.54	2419.14	2427.14	2327.74	2339.34	2359.14	2297.54	2273.94	2279.74	2295.14	2257.14	2229.34	2229.34
489.397	15902	1037.46	2819	2599.8	2565.4	2487.4	2450.4	2479.4	2404.2	2434.6	2396	2427.6	2310.6	2344.6	2334	2292.8	2310.8	2290	2290
489.658	16112.9	1034.52	2868.83	2637.36	2581.56	2505.96	2490.76	2519.96	2455.76	2465.96	2474.96	2465.56	2413.56	2397.56	2354.36	2394.36	2370.96	2344.16	2344.16
489.92	16315.7	1037.84	2906.59	2713.72	2649.32	2597.52	2581.52	2542.32	2543.12	2484.52	2455.32	2477.32	2458.52	2418.32	2414.72	2425.92	2386.92	2330.12	2330.12
490.181	16500.1	1034.94	2948.39	2742.86	2681.86	2621.06	2632.46	2553.46	2539.46	2522.86	2503.16	2456.46	2498.26	2440.06	2413.06	2465.86	2462.66	2391.86	2391.86
490.443	16623.8	1044.08	2956.43	2704.36	2682.16	2626.56	2611.36	2634.96	2582.36	2515.96	2543.96	2525.96	2520.56	2466.36	2454.96	2404.56	2416.96	2397.96	2397.96
490.704	16684	1030.82	3013.22	2720.82	2738.82	2687.42	2655.02	2571.42	2601.62	2563.02	2577.02	2507.02	2462.62	2506.02	2462.42	2478.62	2455.82	2420.62	2420.62
490.966	16896.7	1032.3	3040.81	2790.54	2788.14	2727.74	2697.54	2644.14	2670.94	2613.14	2605.94	2598.34	2533.74	2534.14	2499.94	2473.34	2495.14	2467.74	2467.74
491.227	17126.1	1038.28	3109.31	2849.78	2817.58	2789.38	2734.58	2692.98	2696.38	2654.18	2682.78	2636.58	2627.98	2611.18	2563.78	2569.38	2523.38	2563.78	2563.78
491.488	17251.7	1040.94	3166.08	2911.08	2824.08	2787.88	2783.28	2765.08	2706.28	2662.28	2682.88	2648.48	2633.28	2629.28	2573.28	2580.08	2554.68	2570.28	2570.28
491.749	17444.2	1043.52	3208.83	2948.7	2865.9	2829.5	2788.5	2805.5	2743.9	2804.9	2713.5	2679.3	2711.1	2667.3	2639.3	2632.3	2574.9	2574.1	2574.1
492.01	17616.9	1033.7	3246.08	2988.88	2873.68	2903.48	2847.68	2833.88	2772.28	2731.88	2737.88	2725.28	2738.88	2690.88	2635.08	2655.08	2633.88	2607.08	2607.08
492.271	17792.2	1038.06	3291.81	3044.88	2941.88	2904.48	2902.08	2870.88	2844.48	2793.68	2778.88	2767.48	2773.68	2755.48	2743.68	2680.68	2693.08	2690.88	2690.88
492.533	18010.4	1040.22	3317.45	3026.72	3013.72	2942.32	2947.52	2875.92	2832.92	2859.32	2806.72	2816.32	2802.92	2781.32	2697.72	2710.72	2713.92	2700.12	2700.12
492.793	18186.8	1031.99	3376.45	3089.52	3055.52	2960.72	2997.52	2953.92	2921.52	2897.52	2873.72	2854.12	2805.12	2791.52	2753.72	2747.52	2763.32	2716.52	2716.52
493.054	18333	1044.3	3428.17	3158.84	3063.04	3016.24	3047.64	2969.64	2939.64	2929.84	2898.04	2926.44	2811.04	2860.44	2808.44	2801.64	2761.84	2781.24	2781.24
493.315	18475.6	1042.52	3480.98	3175.78	3093.18	3058.98	3039.58	3032.38	3001.98	2988.38	2937.38	2888.58	2879.28	2878.58	2864.98	2848.78	2775.58	2790.98	2790.98
493.576	18755.4	1050.08	3549.02	3249.62	3168.82	3110.22	3106.42	3107.62	3015.42	3004.02	2936.42	2952.82	2992.62	2904.22	2884.42	2893.62	2900.22	2818.02	2818.02
493.837	18870.4	1042.28	3549.69	3259.02	3212.02	3130.42	3132.22	3101.02	3036.82	3007.62	2986.22	2942.42	2982.42	2930.62	2963.62	2925.02	2886.82	2861.82	2861.82
494.098	19082.7	1034.38	3638.24	3326.24	3273.24	3223.44	3147.24	3136.04	3109.24	3080.64	3035.24	3038.24	3002.04	3025.44	2944.84	2977.44	2944.04	2889.84	2889.84
494.358	19311.7	1043.34	3698.2	3392.6	3280.6	3258.6	3243.6	3185	3168.2	3144	3111.2	3106	3126.6	3060.2	3006	3027.8	2970	3000.6	3000.6
494.619	19488.5	1041.08	3753.09	3420.42	3355.42	3316.22	3245.42	3214.82	3230.62	3181.22	3188.62	3149.22	3064.22	3095.22	3084.22	3056.22	3027.22	3047.42	3047.42
494.879	19568.4	1035.44	3777.14	3447.34	3384.74	3319.14	3257.14	3260.74	3253.94	3231.54	3197.34	3154.54	3148.14	3125.94	3078.34	3069.34	3041.94	3011.94	3011.94
495.14	19827.8	1033.78	3872.76	3553.36	3468.36	3378.76	3401.96	3334.16	3291.96	3290.36	3222.56	3213.76	3210.36	3153.76	3156.56	3154.96	3094.76	3130.76	3130.76
495.4	20080.9	1034.38	3934.57	3558.24	3508.44	3468.64	3421.64	3361.64	3357.04	3331.04	3342.84	3300.24	3228.64	3222.64	3221.64	3189.24	3151.84	3172.04	3172.04
495.661	20109.8	1032.66	3951.85	3596.98	3559.78	3488.78	3418.38	3398.78	3394.98	3332.38	3315.18	3316.98	3260.78	3270.98	3240.38	3202.18	3179.78	3175.18	3175.18
495.921	20342.7	1046.16	4044.23	3652.76	3596.76	3536.56	3488.76	3462.96	3383.96	3401.16	3352.16	3343.76	3309.56	3351.16	3255.56	3253.16	3264.76	3223.16	3223.16
496.181	20488.9	1049.16	4058.01	3682.28	3603.68	3603.08	3559.08	3511.08	3461.68	3424.48	3428.28	3346.68	3400.48	3361.08	3324.48	3280.08	3265.08	3269.88	3269.88
496.442	20825.7	1049.52	4128.05	3784.38	3756.18	3668.18	3631.78	3587.78	3558.18	3509.98	3459.18	3471.78	3439.98	3423.18	3394.38	3330.18	3343.78	3335.58	3335.58
496.702	21008.7	1045.46	4217.8	3815.8	3753	3647.8	3605.4	3633.6	3541	3468.4	3469.6	3499.8	3491.4	3451.8	3473.4	3391.4	3376.6	3350.8	3350.8
496.962	21119.8	1034.74	4303.69	3888.82	3780.22	3755.22	3665.62	3666.82	3612.62	3623.42	3545.22	3507.22	3486.62	3504.22	3494.22	3471.42	3381.42	3458.22	3458.22
497.222	21356.8	1033.68	4343.8	3900.8	3851.2	3791.4	3773.4	3717.4	3645.6	3634	3592.2	3591.6	3561.8	3557	3512.4	3473.4	3503.2	3454	3454
497.482	21508.3	1037.38	4383.53	3996.26	3940.86	3912.86	3810.26	3735.06	3718.66	3679.86	3662.86	3617.26	3595.86	3617.66	3587.06	3538.66	3564.66	3555.66	3555.66
497.742	21586.8	1038.62	4447.1	3983.9	3937.3	3895.5	3801.1	3766.3	3746.1	3690.1	3680.1	3683.9	3679.1	3617.1	3608.9	3591.7	3567.5	3569.1	3569.1
498.002	21917.5	1041.4	4492.35	4041.08	4014.28	3974.68	3890.48	3909.08	3817.28	3801.68	3751.68	3776.68	3709.68	3683.68	3693.28	3622.68	3653.48	3604.88	3604.88
498.262	22165.7	1045.3	4570.12	4135.92	4050.72	4010.52	3980.12	3941.92	3885.52	3803.72	3804.32	3796.72	3773.52	3724.92	3740.12	3695.32	3674.72	3665.52	3665.52
498.522	22279	1031.02	4634.61	4228.28	4104.68	4034.08	3996.08	3946.68	3908.48	3891.28	3878.08	3871.28	3781.28	3750.08	3785.48	3725.68	3703.08	3703.68	3703.68
498.781	22443.3	1040.3	4698.68	4241.08	4145.48	4137.68	4029.48	4012.08	4000.68	3946.08	3918.68	3897.68	3847.08	3819.28	3791.88	3783.08	3784.48	3757.08	3757.08
499.041	22601.5	1041.16	4756.97	4319.34	4184.34	4121.34	4082.54	4116.34	3985.34	3977.14	3966.14	3931.54	3938.34	3886.54	3872.14	3848.54	3781.74	3803.94	3803.94
499.301	22925.4	1036.4	4866.95	4367.62	4288.42	4223.02	4133.82	4139.42	4084.02	4043.02	4034.62	3997.82	3963.02	3948.42	3927.82	3927.22	3899.42	3876.22	3876.22
499.56	23103.6	1039.6	4878.69	4372.56	4319.16	4267.16	4223.36	4170.96	4134.56	4073.36	4033.76	4036.56	4025.56	3961.56	3951.96	3938.76	3920.96	3898.56	3898.56
499.82	23135.8	1043.76	4930.56	4467.76	4367.16	4280.96	4260.96	4198.56	4149.96	4150.56	4104.36	4091.16	4040.36	3967.36	3971.16	3947.56	3936.76	3904.56	3904.56
500.079	23392.4	1045.08	5007.31	4532.24	4421.64	4348.44	4306.84	4277.64	4248.04	4179.64	4153.04	4125.64	4121.84	4054.64	4056.64	4045.24	4020.84	4047.04	4047.04
500.339	23650.3	1044.8	5077.78	4509.98	4477.78	4418.78	4347.38	4314.78	4250.58	4239.58	4235.98	4224.38	4145.18	4138.98	4088.38	4031.18	4059.58	4013.18	4013.18
500.598	23886.1	1032.9	5156.17	4682.5	4559.5	4444.9	4421.3	4356.7	4315.9	4342.7	4306.9	4243.9	4190.9	4243.7	4210.5	4198.3	4104.1	4081.9	4081.9
500.858	24003.8	1043.26	5209.04	4648.24	4637.24	4530.64	4472.24	4437.24	4366.04	4296.64	4291.04	4286.04	4259.84	4260.24	4189.94	4174.44	4157.24	4126.24	4126.24
501.117	24347.7	1040.9	5282.43	4818.9	4682.5	4572.7	4543.1	4482.3	4429.9	4404.9	4401.3	4346.1	4321.7	4275.3	4296.1	4275.1	4226.9	4219.1	4219.1
501.376	24540.9	1042.56	5397	4840.93	4774.93	4719.33	4627.73	4566.73	4519.13	4474.53	4453.33	4443.33	4434.93	4367.93	4426.73	4344.13	4272.53	4271.73	4271.73
501.635	24637.9	1043.02	5457.37	4903.64	4767.64	4701.84	4707.84	4676.44	4584.44	4565.64	4446.64	4447.04	4448.64	4392.04	4414.64	4369.84	4339.04	4310.44	4310.44
501.895	24783.7	1030.66	5476.83	4896.96	4845.16	4808.96	4707.16	4629.36	4660.96	4615.96	4529.36	4503.96	4556.56	4480.76	4444.56	4374.36	4412.76	4400.16	4400.16
502.154	24927.3	1036.78	5566.11	4986.98	4897.58	4844.98	4814.18	4728.18	4723.98	4685.18	4600.18	4575.78	4560.38	4444.78	4529.78	4444.98	4432.98	4387.58	4387.58
502.413	24991.6	1038.94	5619.31	5038.84	4868.44	4885.84	4813.44	4709.24	4699.84	4639.64	4623.04	4650.24	4527.64	4535.24	4511.84	4474.84	4450.64	4429.04	4429.04
502.672	25533.6	1044.18	5727.49	5174.76	5053.56	4969.76	4908.36	4883.16	4876.16	4744.56	4731.56	4754.96	4660.16	4650.36	4574.16	4584.76	4585.36	4582.96	4582.96
502.931	25639.9	1056.52	5775.04	5183.64	5093.64	5038.24	4990.44	4867.04	4843.44	4845.24	4766.04	4717.04	4688.84	4723.44	4674.44	4623.84	4610.84	4588.24	4588.24
503.189	25704.2	1044.24	5793.94	5171.94	5152.54	5077.74	5032.74	4967.14	4910.34	4883.34	4805.54	4802.94	4760.94	4686.54	4692.54	4680.94	4650.54	4627.14	4627.14
503.448	26019.6	1044.74	5900.2	5306.2	5244.4	5126.8	5117.6	5003.4	4970.2	4906.8	4885.8	4830	4869.4	4816.6	4723.8	4762.6	4700.4	4713.8	4713.8
503.707	26159.6	1034.1	5970.88	5358.28	5232.48	5145.08	5079.28	5040.08	5031.28	4966.08	4933.88	4916.48	4920.08	4852.68	4866.88	4796.68	4783.28	4757.48	4757.48
503.966	26426.6	1040.6	6076.18	5433.78	5327.38	5289.78	5212.78	5137.18	5037.78	5014.18	5041.38	5002.98	4965.98	4918.18	4890.58	4893.18	4828.78	4764.98	4764.98
504.224	26532.7	1036.16	6127.95	5456.02	5357.62	5294.42	5269.02	5171.22	5157.82	5135.02	5056.62	5024.62	4989.22	4931.02	4991.02	4891.62	4880.42	4837.02	4837.02
504.483	26813.8	1038	6264.93	5626.8	5467.4	5398.2	5317.4	5296.6	5219.2	5227.2	5147.2	5095.6	5046.4	5041.4	4988.4	4977	4937.4	4908.6	4908.6
504.742	26992.3	1040.48	6340.93	5638.2	5543.4	5492	5392	5335	5237	5263	5225	5149.2	5150.2	5098.6	5087.8	5066.4	5028.8	5040	5040
505	27224	1052.14	6400.83	5706.56	5611.76	5497.96	5472.56	5346.96	5363.16	5320.36	5258.16	5225.56	5231.76	5148.16	5145.36	5075.56	5141.76	5061.16	5061.16
505.259	27189.8	1038.37	6452.31	5776.18	5617.38	5554.78	5485.98	5455.58	5369.58	5351.38	5321.58	5275.78	5263.98	5185.18	5190.78	5152.58	5082.18	5133.18	5133.18
505.517	27360	1042.4	6542.9	5812.3	5764.1	5690.7	5534.1	5483.3	5475.7	5341.7	5349.7	5340.5	5318.7	5270.9	5176.9	5171.5	5153.3	5128.3	5128.3
505.775	27571.1	1045.48	6614.11	5910.84	5805.64	5698.44	5580.84	5535.64	5502.24	5511.44	5440.64	5415.24	5398.04	5410.84	5322.44	5296.04	5254.44	5175.44	5175.44
506.034	27700.5	1034.94	6698.63	5954.16	5798.96	5731.36	5707.36	5627.56	5581.56	5552.56	5482.56	5455.36	5449.96	5418.96	5359.36	5284.96	5279.96	5244.36	5244.36
506.292	27940.6	1027.08	6734.11	6004.18	5849.98	5830.38	5749.78	5726.78	5683.58	5583.58	5545.58	5552.78	5453.18	5420.18	5383.38	5444.58	5307.58	5266.38	5266.38
506.55	28132.5	1036.08	6877.97	6084.3	6036.3	5860.7	5835.3	5755.5	5707.5	5684.1	5658.3	5617.1	5639.7	5458.1	5463.9	5454.1	5428.1	5394.1	5394.1
506.808	28223.6	1041.54	6933.31	6175.38	6051.78	5922.78	5937.58	5813.78	5779.38	5745.38	5725.58	5627.78	5654.58	5635.18	5511.58	5505.78	5514.58	5459.18	5459.18
507.066	28487	1036.38	6991.33	6236.26	6091.26	5985.06	5969.06	5900.86	5798.06	5785.86	5736.86	5713.26	5683.86	5702.06	5590.86	5618.66	5537.46	5527.26	5527.26
507.324	28684.5	1043.54	7061.03	6280.9	6188.7	6063.3	6065.7	5980.7	5941.9	5876.5	5853.3	5796.1	5743.3	5705.3	5686.7	5669.3	5649.5	5647.9	5647.9
507.582	28904.4	1041.16	7188	6391	6304.4	6150.4	6043	6047.2	5919.4	5931	5890.2	5912.4	5837.4	5803.1	5777	5760.8	5755	5741.8	5741.8
507.84	29026	1039.02	7195.85	6435.12	6287.92	6221.92	6140.52	6076.52	6026.32	5962.32	5869.92	5874.52	5861.12	5857.12	5819.52	5753.52	5721.52	5722.52	5722.52
508.098	29361.5	1049.32	7309.07	6491.4	6379.2	6292	6218.8	6197	6132.4	6031	6051	5976.2	5930.6	5967.4	5907	5825	5838.6	5815.2	5815.2
508.356	29506	1038.02	7407.45	6583.12	6445.12	6378.52	6276.72	6265.32	6172.52	6151.72	6078.52	6035.32	5976.32	6029.12	5947.52	5956.12	5935.92	5852.72	5852.72
508.614	29514.2	1031.74	7457.62	6614.82	6439.82	6419.02	6295.02	6222.02	6202.42	6157.42	6088.22	6038.22	6063.22	6044.02	5978.22	5926.82	5849.42	5874.62	5874.62
508.871	30050	1038.56	7599.51	6721.78	6606.38	6455.98	6466.78	6384.18	6319.18	6271.38	6249.18	6163.58	6198.38	6109.78	6063.58	6106.58	6045.38	6016.78	6016.78
509.129	30253.7	1035.5	7683.69	6827.76	6672.16	6591.76	6534.36	6473.96	6385.36	6329.96	6301.76	6275.96	6200.36	6168.56	6175.76	6105.96	6117.56	6020.16	6020.16
509.387	30465.1	1029.14	7724.14	6852.34	6747.54	6686.74	6545.54	6498.94	6476.14	6411.94	6356.14	6261.54	6247.14	6212.94	6188.94	6179.34	6168.14	6074.74	6074.74
509.644	30688	1045.6	7816.6	6907.8	6831	6698.2	6603.4	6571.8	6484.4	6425.8	6378.6	6399.4	6292.6	6297	6263.4	6257.2	6201.8	6143.6	6143.6
509.902	30703.1	1042.98	7891.13	7021.06	6807.46	6695.26	6681.66	6615.26	6591.26	6507.06	6406.66	6439.26	6330.26	6309.46	6295.46	6339.26	6228.86	6230.26	6230.26
510.159	30959.6	1038.16	7975.99	7081.86	6938.46	6835.66	6766.86	6675.26	6638.86	6549.06	6503.26	6516.26	6455.66	6438.66	6402.86	6348.26	6294.66	6254.86	6254.86
510.417	31191.5	1040.7	8030.1	7095.3	6980.1	6883.9	6801.9	6679.1	6645.5	6602.5	6629.5	6522.5	6524.6	6492.7	6398.5	6440.3	6402.9	6361.5	6361.5
510.674	31248.4	1037.82	8138.03	7164.96	7059.56	6987.36	6836.36	6829.16	6758.96	6670.36	6684.16	6640.56	6538.96	6537.76	6515.56	6517.16	6460.56	6374.16	6374.16
510.931	31618	1039.3	8240.45	7337.98	7155.18	7088.18	6942.38	6942.78	6902.38	6810.18	6784.18	6711.98	6691.98	6632.58	6618.78	6508.78	6514.18	6493.98	6493.98
511.189	31697.1	1045.26	8355.41	7372.74	7231.94	7083.34	7002.54	6948.54	6902.74	6882.14	6850.94	6736.54	6788.14	6671.14	6614.74	6645.14	6609.14	6537.74	6537.74
511.446	31801.7	1037.34	8393.37	7406.3	7278.7	7212.7	7143.1	7072.5	6975.9	6965.9	6876.1	6825.9	6822.3	6764.1	6741.7	6682.5	6638.3	6618.1	6618.1
511.703	32021.3	1034.76	8476.98	7532.38	7388.18	7260.38	7170.18	7148.38	7085.78	6989.38	6986.38	6918.98	6827.58	6824.98	6771.58	6779.78	6746.78	6741.18	6741.18
511.96	32271.7	1042.86	8577.2	7597	7452.5	7340	7236.2	7182.4	7200.6	7114.6	7090.6	7014.6	6996.4	7005.4	6900.4	6824.6	6777.2	6848.8	6848.8
512.217	32259.5	1040.9	8631.51	7675.24	7544.44	7408.24	7332.24	7254.44	7190.84	7199.44	7088.84	7084.84	7007.04	6991.04	6961.84	6952.24	6893.04	6850.04	6850.04
512.474	32373.9	1034.2	8729.52	7775.12	7536.32	7448.92	7370.12	7278.92	7300.12	7236.72	7158.12	7140.32	7152.72	7061.52	7015.32	6962.32	6941.92	6926.92	6926.92
512.731	32480.9	1033.5	8858.28	7841.28	7651.08	7510.48	7527.88	7387.08	7371.48	7290.68	7303.48	7197.48	7175.68	7111.88	7105.68	7051.28	7079.08	7020.48	7020.48
512.988	32737.1	1029.42	8958.14	7938.34	7722.74	7606.94	7591.34	7512.14	7473.34	7427.54	7320.54	7316.34	7251.14	7248.94	7140.74	7119.14	7092.54	7053.94	7053.94
513.245	32883.3	1034.72	9045.03	8029.7	7899.7	7731.5	7661.5	7610.9	7503.1	7463.5	7395.7	7306.3	7340.5	7264.3	7335.7	7226.1	7173.7	7127.7	7127.7
513.502	33054.3	1047.37	9123	8053.4	7916.4	7764.6	7722.2	7606.8	7596	7544.2	7440.4	7468.6	7326	7351.2	7298	7297.6	7282.2	7165	7165
513.758	33082.4	1039.88	9236.71	8179.44	8028.04	7859.04	7845.04	7753.44	7655.24	7688.24	7550.84	7489.04	7465.44	7518.44	7425.04	7371.44	7285.24	7282.24	7282.24
514.015	33207.8	1048.38	9285.7	8247.7	8099.9	7937.3	7863.3	7765.5	7725.5	7663.3	7634.9	7536.9	7491.5	7492.1	7483.7	7377.5	7371.9	7404.3	7404.3
514.272	33461.4	1045.44	9439.23	8326.7	8228.7	8049.7	7909.1	7889.1	7744.3	7762.9	7728.9	7689.7	7600.5	7599.3	7555.5	7563.7	7521.5	7454.5	7454.5
514.528	33561.8	1046.94	9482.24	8400.84	8181.64	8077.64	8021.24	7921.64	7860.64	7843.24	7802.24	7767.04	7738.44	7684.84	7623.04	7561.24	7517.84	7538.44	7538.44
514.785	33859.7	1047.78	9590.72	8446.52	8275.12	8230.52	8094.32	8080.32	8039.52	7898.12	7860.92	7852.32	7779.32	7775.12	7696.92	7623.52	7575.12	7623.52	7623.52
515.041	34111.4	1038.1	9711.95	8555.22	8304.22	8271.42	8248.02	8149.82	8002.42	8026.82	7948.62	7862.62	7899.62	7787.82	7816.82	7789.62	7696.22	7695.02	7695.02
515.297	34327.8	1035.12	9785.37	8657.64	8403.24	8304.04	8217.24	8237.84	8098.44	8092.84	8011.04	7967.84	7934.84	7900.64	7944.84	7816.64	7783.64	7734.84	7734.84
515.554	34442.6	1033.24	9848.71	8768.64	8483.04	8442.64	8370.84	8287.04	8182.44	8095.84	8063.44	8108.04	8003.24	7883.24	7916.64	7892.44	7879.24	7765.44	7765.44
515.81	34792.2	1037.08	9995.32	8803.32	8627.32	8532.92	8408.52	8326.72	8306.52	8315.62	8198.92	8169.12	8082.92	8073.72	8088.92	7986.32	7933.12	7927.12	7927.12
516.066	34698.7	1048.16	10016.4	8920.36	8696.16	8546.56	8460.16	8389.96	8342.96	8316.16	8303.36	8192.36	8164.56	8091.76	8057.56	7988.16	7972.56	7932.56	7932.56
516.323	34987.7	1046.38	10161.4	8935.72	8785.52	8641.32	8631.92	8583.32	8515.72	8397.32	8358.92	8329.52	8235.32	8163.92	8143.92	8087.52	8062.32	8057.12	8057.12
516.579	34973.7	1044.02	10222.4	8985.58	8801.38	8739.58	8654.78	8509.98	8463.78	8489.98	8329.78	8351.78	8315.38	8243.98	8246.78	8134.98	8166.98	8148.38	8148.38
516.835	35258.9	1036.94	10331.3	9158.42	8947.22	8849.22	8771.02	8686.42	8551.42	8583.22	8491.42	8508.42	8377.22	8319.62	8334.62	8272.62	8296.42	8236.62	8236.62
517.091	35329.5	1048.36	10431.4	9222.58	9005.38	8880.78	8842.98	8747.78	8663.38	8628.58	8498.78	8500.98	8443.78	8371.78	8376.18	8297.78	8308.58	8201.78	8201.78
517.347	35771.2	1041.38	10566.9	9292.88	9122.88	9024.48	8898.68	8820.28	8753.48	8733.38	8652.88	8582.08	8567.08	8556.08	8495.08	8489.08	8388.88	8346.08	8346.08
517.603	35720.3	1039.12	10585.9	9366	9150.6	9050.4	8931.4	8915.2	8815.6	8704.6	8658.4	8547.4	8598.6	8557.2	8496.6	8437.2	8462.4	8488.8	8488.8
517.859	35962.5	1031.02	10683	9390.96	9266.16	9148.76	9026.56	8954.96	8892.96	8758.16	8801.96	8719.36	8702.56	8639.76	8610.36	8548.96	8561.36	8470.36	8470.36
518.114	36057.5	1036.68	10792.7	9437.32	9318.92	9116.32	9103.92	8992.12	8974.92	8897.12	8907.72	8804.72	8789.92	8666.72	8714.92	8586.12	8606.92	8558.12	8558.12
518.37	36232.6	1047	10888.7	9628	9417.6	9317	9226.2	9131.8	9025.6	9080	8932.2	8913.4	8844	8799.8	8809.2	8672.8	8664.6	8653.2	8653.2
518.626	36366.4	1036.66	11020.7	9760.68	9522.68	9395.68	9261.08	9275.88	9156.48	9087.08	9040.68	8994.48	8865.28	8871.88	8822.68	8796.68	8755.88	8785.48	8785.48
518.882	36447.7	1046.14	11094.6	9828.65	9552.85	9382.05	9312.65	9296.05	9214.05	9236.45	9105.25	8964.05	9014.65	8974.05	8866.65	8854.05	8819.45	8741.25	8741.25
519.137	36813.2	1042.12	11259.8	9819.58	9639.18	9512.38	9454.38	9383.58	9294.58	9291.18	9190.58	9176.58	9065.18	9098.78	9001.58	9021.78	8942.98	8990.58	8990.58
519.393	36782.6	1042.94	11336.2	9844.49	9763.49	9539.69	9480.09	9408.69	9377.29	9374.29	9264.09	9146.89	9177.49	9088.69	9056.49	8978.69	9042.29	9042.29	9042.29
519.648	37138.7	1055.24	11472.6	10078.5	9840.12	9711.92	9659.32	9479.32	9465.52	9427.92	9354.32	9365.12	9320.52	9254.72	9183.92	9181.92	9122.52	9113.12	9113.12
519.904	37291.7	1035.46	11559.9	10059.7	9858.08	9865.48	9713.48	9591.28	9525.28	9488.08	9464.28	9431.08	9378.28	9288.28	9232.08	9231.88	9222.28	9170.48	9170.48
520.159	37357.3	1033.8	11569.1	10127.8	10005	9803.96	9753.36	9673.76	9598.76	9610.76	9517.56	9433.96	9377.96	9355.36	9316.16	9298.36	9291.96	9150.36	9150.36
520.415	37532.2	1041.54	11663.1	10235.9	9954.14	9909.34	9801.14	9705.94	9682.74	9613.94	9566.74	9498.94	9479.14	9410.54	9370.34	9320.74	9328.14	9276.34	9276.34
520.67	37727.1	1047.7	11780.5	10395.4	10168.8	10034.8	9954.02	9922.82	9799.82	9806.42	9685.22	9645.02	9631.82	9587.82	9528.42	9484.62	9418.02	9373.22	9373.22
520.925	37913.3	1039.8	11867	10436.4	10263.8	10131	9977.76	9982.56	9850.96	9799.16	9722.56	9698.76	9648.16	9615.76	9643.76	9577.96	9503.36	9484.76	9484.76
521.18	37966.9	1045.52	11960.2	10520.8	10267.2	10182.8	10143	10074.8	9911.76	9909.16	9829.16	9842.16	9769.76	9685.96	9687.96	9571.96	9589.96	9507.16	9507.16
521.436	38013.2	1042.08	12035.1	10575.8	10365	10209	10159.2	10026.6	10001.2	9948.96	9856.16	9857.16	9773.76	9741.96	9705.16	9704.56	9615.56	9588.36	9588.36
521.691	38430.3	1040.52	12146.2	10695.6	10513	10347.6	10306.8	10217	10173.8	10036.2	9987.98	9967.98	9934.78	9901.78	9782.98	9778.98	9673.78	9705.18	9705.18
521.946	38336.7	1046.42	12236.4	10805.2	10514	10423	10305.6	10240.8	10200.6	10100.4	10050.4	10019.8	9898.22	9906.82	9876.22	9837.82	9818.62	9817.82	9817.82
522.201	38426.4	1029.86	12294.5	10791.1	10560.5	10456.9	10433.5	10356.7	10161.9	10185.9	10098.7	10108.3	9989.12	9998.52	9908.32	9927.72	9845.52	9800.52	9800.52
522.456	38655.9	1048.26	12411.1	10996.1	10681.5	10628.5	10452.5	10461.3	10262.9	10240.1	10229.1	10198.9	10068.1	10008.3	10038.9	9927.34	9875.94	9934.54	9934.54
522.71	38730.8	1038.84	12478.8	10970.3	10790.1	10684.7	10581.3	10440.1	10376.7	10394.7	10382.7	10232.7	10174.3	10171.9	10073.1	10024.5	9969.88	10003.7	10003.7
522.965	38862.8	1040.72	12605.7	11096.9	10901.3	10709.1	10693.1	10576.1	10506.1	10397.9	10389.3	10317.3	10282.3	10253.9	10183.7	10132.1	10160.5	10105.3	10105.3
523.22	38956.3	1032.92	12697.7	11292.6	10934.6	10777.8	10665.4	10654	10572.6	10470.2	10426.2	10410.6	10385.8	10314.6	10265.4	10280.6	10304.8	10147.6	10147.6
523.475	39185.2	1047.66	12870	11364.5	11133.7	10912.3	10814.9	10741.3	10712.3	10616.7	10524.3	10520.7	10414.1	10440.7	10319.3	10252.5	10313.1	10194.9	10194.9
523.729	39233.8	1037.36	12902.5	11397.4	11175.4	11007.4	10925.8	10757	10716.2	10649.8	10671.2	10570.8	10542.8	10480.8	10354.2	10391.6	10344	10334.4	10334.4
523.984	39289.1	1044	12952.9	11382.7	11241.7	11011.7	10949.7	10882.1	10790.9	10727.7	10683.5	10650.9	10558.5	10562.7	10508.1	10446.4	10325.9	10380.3	10380.3
524.239	39541.3	1043	13088.2	11558.9	11336.9	11149.9	11095.5	10967.9	10917.9	10803.3	10773.5	10726.7	10632.3	10573.1	10576.1	10522.7	10448.9	10421.1	10421.1
524.493	39733.1	1039	13216	11626.2	11325	11242	11092	11019	11002	10951	10790.8	10765.6	10731.8	10653.4	10628.2	10652	10623.8	10581.8	10581.8
524.748	39816.8	1038.06	13305.2	11712	11441	11325.6	11233.6	11180.2	11064.2	11050.2	10942	10793	10826.2	10788.8	10759	10728.6	10699.4	10640.6	10640.6
525.002	39788.8	1040.55	13354.1	11738.2	11532.4	11411.8	11343.2	11183.6	11093.4	11082.4	10979	10863.6	10825.8	10800.8	10773.2	10750	10775.8	10747.4	10747.4
525.256	40108.6	1047.12	13534	11926.8	11621.4	11461	11381.2	11331.4	11212.8	11149.6	11070.4	11033	10988.4	10982.6	10854.6	10855.2	10831.8	10796	10796
525.511	40198.2	1037.86	13528.9	11820.3	11691.3	11531.9	11494.1	11255.7	11332.5	11121.9	11154.9	11127.7	10990.3	10986.5	10925.9	10967.9	10910.1	10863.7	10863.7
525.765	40275.7	1041.54	13631.1	11948.7	11802.9	11554.9	11515.7	11435.7	11397.5	11331.5	11240.9	11167.5	11159.7	11078.3	11036.1	11031.7	10928.7	10928.7	10928.7
526.019	40589.4	1045.74	13831.8	12107.5	11835.3	11695.1	11640.3	11523.1	11464.3	11369.3	11365.1	11381.5	11232.1	11215.5	11150.3	11128.7	11068.7	11062.5	11062.5
526.273	40357.7	1040.9	13806.1	12055.5	11825.9	11798.5	11625.1	11577.9	11456.3	11351.9	11309.1	11312.5	11205.9	11179.5	11150.5	11035.7	10988.5	11069.7	11069.7
526.527	40559.7	1041.2	13937.2	12217.2	11996	11760.2	11782.2	11623.8	11590	11479.6	11484	11342.8	11316.6	11311.4	11336.6	11215.6	11079.4	11112.8	11112.8
526.781	40633.8	1039.66	13941.5	12333	11968.2	11885	11781	11652.8	11598.2	11561.2	11571	11499.8	11422.2	11370.8	11292.4	11239.2	11286	11134.4	11134.4
527.035	40725.8	1033	14067.5	12395.7	12058.9	11953.3	11792.5	11722.5	11742.1	11586.1	11579.9	11466.3	11501.1	11369.1	11438.5	11332.9	11191.9	11349.9	11349.9
527.289	40663.5	1036.2	14113.5	12361.7	12126.3	12013.9	11922.5	11803.3	11643.5	11629.8	11572.9	11567.9	11521.3	11386.3	11439.5	11423.3	11328.3	11270.3	11270.3
527.543	40828.7	1042.8	14231.1	12520.2	12245.8	12082.6	11989	11879.4	11749.6	11727.8	11707.8	11666.4	11610.4	11579	11537.4	11440.6	11429	11385.2	11385.2
527.797	41023.2	1037.24	14320.1	12577.8	12307.4	12184.6	12085.6	12015	11872.4	11891.4	11710.4	11737	11691	11691.4	11586.8	11502.8	11491.6	11443	11443
528.051	41046	1040.2	14415	12625	12406.3	12185	12154	12068.4	11887.2	11942.4	11824	11768.4	11622.6	11766.2	11688.4	11597.8	11520	11533.6	11533.6
528.305	41206.4	1037.96	14453.2	12738	12404.6	12305.6	12258	12124	11995.4	11964.6	11927.6	11809	11789.6	11753.4	11769.4	11705	11546.6	11564.4	11564.4
528.558	40659.7	1044.31	14352.6	12657.7	12332.9	12210.7	12064.3	11992.1	11915.9	11887.7	11747.3	11746.9	11743.9	11600.9	11643.7	11592.1	11523.1	11509.9	11509.9
528.812	41453.8	1042.56	14718.5	12883.4	12659.6	12487.2	12367.4	12275.4	12269	12197.8	12091	12043.4	11979.6	11896.6	11972.6	11923.2	11791	11788	11788
529.065	41689.8	1046.36	14895.5	12938.4	12783.4	12575	12494.8	12334	12310.4	12329.8	12279.8	12163	12103.8	12075.2	12087	11989	11897.4	11870.4	11870.4
529.319	41585.5	1044.98	14820.5	13083.2	12828.2	12641.4	12575.2	12408	12441.4	12395.2	12298.8	12160.4	12167	12105.8	12040.6	11978.4	11986.8	11936	11936
529.572	41826.3	1041.72	15030.8	13184.1	12932.5	12865.1	12722.9	12629.5	12556.9	12375.3	12384.3	12254.5	12255.1	12228.3	12136.9	12189.1	12103.3	12115.3	12115.3
529.826	41765.8	1046.99	15060.9	13250.6	12894.2	12836.2	12768.8	12643.4	12565.4	12525.6	12351.6	12417.8	12287.6	12167.8	12288	12262.6	12159.6	12074	12074
530.079	42033.5	1041.38	15231.6	13295	13067.6	12903.2	12834.4	12721.6	12659.4	12646.2	12512.8	12398.6	12370.4	12331	12323.6	12304.2	12326	12194.4	12194.4
530.333	41874.1	1047.58	15211.6	13407.6	13063.6	12918	12842.8	12792	12648.8	12578.2	12576	12549.8	12485.2	12317.8	12360.2	12278.8	12273	12220	12220
530.586	41994.8	1037.96	15341.2	13459.2	13156.4	13040.4	12902.4	12843.4	12727	12726.6	12593.8	12538	12571	12430.6	12422.8	12458.6	12344	12395.8	12395.8
530.839	42141.6	1037.73	15493.6	13569.7	13299.9	13142.7	13082.5	12986.1	12829.3	12715.4	12734.7	12718.5	12599.3	12603.3	12595.9	12518.5	12398.5	12425.5	12425.5
531.092	42277.1	1043.82	15622.3	13630.4	13460.8	13299.4	13147.6	13150.2	13018	12908.4	12896.6	12796	12803.6	12725	12653.8	12673.8	12599.6	12536.4	12536.4
531.345	41647.9	1044.58	15462.4	13534.8	13321.8	13125.2	13026.8	12963.2	12919	12738.4	12690.4	12632.4	12642.8	12560.2	12586.4	12473.4	12537.4	12445.4	12445.4
531.598	42383	1063.84	15739.8	13892.8	13543	13417.4	13241.4	13185.6	13043.6	13068.8	13027.8	12895.6	12912	12852.8	12801	12755.4	12678.6	12712.6	12712.6
531.851	42361.1	1039.14	15810.1	13891.4	13549.6	13423.4	13233.2	13223.2	13226.8	13085.4	13087.8	13026.4	12915.4	12899.2	12925.6	12908.4	12797.8	12717	12717
532.104	42418.8	1038.78	15951.8	13975.3	13770.3	13469.1	13369.3	13369.1	13163.7	13165.5	13084.5	13081.9	13027.9	12960.3	12888.5	12902.9	12900.9	12838.2	12838.2
532.357	42388.6	1038.42	16033.9	14029.8	13778.6	13554.8	13461.8	13481.6	13353.4	13279.6	13253.8	13192.6	12991.2	13064.6	13074.2	12965.6	12963.8	12970	12970
532.61	42521.7	1045.58	16087.1	14147.7	13891.5	13686.9	13613.9	13599.1	13471.8	13388.1	13358.7	13293.5	13242.9	13189.7	13123.7	13061.1	13134.7	13010.3	13010.3
532.863	42514.8	1038.54	16171.6	14185.5	13984.5	13767.7	13604.3	13502.5	13509.7	13431.3	13353.7	13305.3	13291.5	13236.5	13151.5	13104.3	13042.3	12988.7	12988.7
533.115	42680.2	1034.22	16286.9	14347.4	14082.8	13941.4	13717.8	13680.6	13571.8	13568.4	13427.4	13381.4	13469	13311.2	13318	13276.6	13214.2	13186.6	13186.6
533.368	42750.2	1036	16364.7	14418.6	14039.6	13999.6	13800.4	13744.8	13663.8	13678.2	13592.4	13507	13448.6	13416.4	13370.6	13328.2	13335.4	13197	13197
533.621	42800.9	1036.16	16508.5	14536.3	14230.1	14087.5	13986.5	13836.5	13781.5	13729.7	13687.1	13626.5	13587.5	13501.5	13507.5	13437.9	13372.5	13327.7	13327.7
533.873	42888.8	1033	16615.9	14649.2	14349.4	14209.4	14046.8	14012.6	13983	13838.4	13711.8	13700.2	13640	13596	13566.4	13623	13496.4	13564.4	13564.4
534.126	42862.9	1037.88	16694.5	14689.3	14352.7	14265.5	14092.3	14015.3	13932.3	13913.7	13834.5	13808.7	13733.9	13675.7	13618.7	13603.9	13493.1	13524.7	13524.7
534.378	43062.9	1047.73	16770.9	14790.2	14407.8	14339.8	14241	14111	14030.8	13964.2	13951	13846	13724.8	13801.2	13724	13612.8	13585.2	13525.4	13525.4
534.631	43087.4	1043.16	16863.1	14906.5	14552.8	14414.4	14326.2	14234.6	14112.8	14076.8	13869.6	13940.6	13831.8	13897.6	13803.8	13829.2	13732.6	13658.6	13658.6
534.883	43124.3	1033.68	16983.4	14986.4	14623	14527.8	14391.6	14275.4	14225.4	14130.4	14190.4	14047.4	13942.4	13910.8	13823.6	13817.6	13847.8	13790	13790
535.135	43267.9	1035.02	17071.9	14948.3	14763.5	14595.7	14453.6	14373.7	14235.1	14227.7	14203.7	14142.7	14055.3	14076.7	14019.3	14021.5	13889.9	13820.5	13820.5
535.388	43214.9	1037.02	17062	15066.8	14741.8	14624.2	14449	14421.4	14285.6	14194.4	14116.2	14144.8	14040	13921.4	14027.4	13939.6	13943.6	13739.4	13739.4
535.64	43320.5	1041.36	17165.3	15076.9	14815.3	14693.7	14647.3	14422.1	14408.1	14325.1	14215.3	14124.3	14173.1	14101.7	14089.9	13991.7	14169.9	13888.9	13888.9
535.892	43425.3	1036.82	17290.7	15238.2	14904.6	14761	14571.2	14592.7	14413.8	14480.2	14406.8	14265.4	14331.6	14228	14181.4	14161.2	14079.6	14043.6	14043.6
536.144	43721.3	1036.22	17456.4	15420.5	15140.3	14902.9	14805.9	14726.7	14704.7	14583.3	14645.7	14412.7	14441.5	14307.7	14282.3	14280.5	14302.7	14224.7	14224.7
536.396	43855.5	1044.72	17597.8	15425.1	15154.9	14932.5	14925.5	14867.1	14768.7	14655.5	14662.5	14521.7	14545.1	14365.3	14481.5	14392.5	14278.1	14249.1	14249.1
536.648	43923.8	1035.86	17663.4	15582.5	15256.5	15127.3	14997.3	14955.3	14847.1	14787.5	14778.9	14716.5	14587.7	14485.7	14529.1	14490.5	14394.9	14470.3	14470.3
536.9	43915.8	1039.2	17713.5	15580.5	15193.5	15140.1	15056.5	14954.9	14843.5	14857.5	14788.9	14718.7	14636.7	14645.5	14602.3	14568.5	14470.7	14460.5	14460.5
537.152	44201.7	1038.26	17824.9	15757.9	15459.1	15280.5	15113.7	15082.9	15022.5	14899.3	14850.5	14873.3	14674.5	14770.5	14648.1	14708.5	14674.9	14554	14554
537.404	44134.6	1035.24	17857.2	15772.4	15420.4	15371	15210.6	15110.6	15021	15011	14915.2	14945.2	14820.4	14842.4	14679.4	14657.6	14645.2	14739.8	14739.8
537.655	44281.6	1040.34	17985.7	15864	15418.6	15390.4	15255.4	15223.4	15093.6	15059.2	15122.6	15043.4	14956.4	14901.4	14790	14747.2	14767.4	14786.8	14786.8
537.907	44547.1	1041.44	18181.8	16071.5	15714.3	15584.1	15421.9	15442.9	15249.7	15218.7	15260.1	15103.7	15135.9	15085.9	14942.7	14939.5	14832.3	14896.9	14896.9
538.159	44627.5	1035.52	18313.6	16067.1	15787.7	15652.9	15524.3	15397.7	15350.5	15335.9	15264.7	15241.3	15197	15045.5	15096.3	15010.7	14977.7	14934.1	14934.1
538.411	44663.3	1036.24	18351.3	16193.8	15915.6	15708.8	15529.8	15545	15455.2	15388	15320.8	15211.8	15234.6	15165.2	15078	15068.2	15124	14994.8	14994.8
538.662	44760.4	1039.72	18432.2	16250.2	15891.4	15682.2	15677.8	15616.2	15551	15426.6	15377	15378.2	15304.6	15343.4	15235	15103	15133	15121.6	15121.6
538.914	45054.8	1039.46	18532.8	16562.1	16118.4	15955	15856	15756.8	15677.4	15652.4	15534.4	15545.4	15450.6	15379.2	15273.8	15383.6	15238.2	15256.6	15256.6
539.165	44868.8	1037.3	18608.5	16422.3	16124.4	16063.5	15870.9	15784.5	15697.5	15671.5	15499.3	15549.5	15517	15328.7	15361.5	15401.1	15326.3	15171.9	15171.9
539.416	45150.2	1039.38	18810.6	16613.6	16331.9	16118	15983.4	16038.2	15915	15801.8	15770.4	15691.6	15533.4	15616.4	15538.5	15503.2	15392.2	15386	15386
539.668	45386.8	1032.5	18956.6	16757.6	16475.2	16260	16164.4	16052.4	15994.8	15991.6	15880.8	15772.3	15721.2	15703.2	15695	15649.2	15596.4	15594	15594
539.919	45233.8	1039.34	18909.5	16734.6	16444.9	16297.1	16113.8	16079.9	15927.1	15910.1	15856.3	15865.6	15787.9	15683.5	15681.1	15739.3	15526.9	15555.1	15555.1
540.17	45387.8	1038.48	19095.4	16941.3	16618.5	16411.9	16360.3	16173.5	16125.1	16053.9	16037.7	15906.3	15906.9	15751.3	15751.9	15776.3	15731.3	15691.3	15691.3
540.422	45478.9	1031.16	19284.8	16977.8	16612.6	16457.6	16458	16338.8	16141.2	16122.2	16098.6	15992.6	16026.6	15828.6	15947.4	15888.6	15758.6	15763.2	15763.2
540.673	45390.8	1030.32	19343.2	17074.4	16626.2	16419.6	16440.4	16344.8	16246	16247.8	16081	16032.2	16080.8	15971.6	15942	15891.2	15896.6	15788.4	15788.4
540.924	45646.3	1030.82	19432.2	17143.6	16886.4	16618.8	16592.8	16476	16405.4	16347	16273.4	16247.2	16233	16147.6	16048	16064	16005.6	15944.2	15944.2
541.175	45830.7	1040.06	19587	17354.5	17002.9	16806.3	16642.9	16596.9	16531.5	16501.5	16474.1	16426.9	16369.9	16307.5	16292.5	16180.5	16203.7	16197.1	16197.1
541.426	45898.4	1045.14	19702.3	17508.1	17237.1	16924.6	16832.1	16684.7	16667.3	16514.5	16535.7	16377.1	16318.9	16327.9	16312.1	16361.3	16327.9	16184.7	16184.7
541.677	46067.6	1039.9	19815.8	17569.1	17126.7	16918.1	16869.1	16710.1	16724.7	16563.3	16606.5	16520.7	16475.5	16422.1	16371.1	16288.3	16235.5	16230.3	16230.3
541.928	46112.1	1043.04	19852	17636	17252.1	17090.3	16983.7	16895.7	16776.3	16666.5	16648.1	16663.3	16534.1	16573.5	16534.5	16437.3	16391.7	16314.1	16314.1
542.179	45996.1	1041.74	19982.9	17540.9	17339.3	17020.5	17000.9	16953.9	16864.5	16717.9	16642.6	16648.7	16578.8	16507.5	16515.9	16508.3	16426.9	16324.9	16324.9
542.429	46287.9	1039.95	20086.2	17760.5	17457.7	17253.1	17178.1	17058.7	16987.3	16971.3	16841.7	16901.7	16741.1	16775.5	16812.5	16617.3	16668.9	16661.1	16661.1
542.68	46432.8	1046.04	20300.4	17852	17631.6	17296.4	17253.6	17144.8	17156.4	17182.6	17045	16988	16933.8	16934.2	16817.4	16758	16737.6	16681	16681
542.931	46710.3	1039.38	20307	18060.7	17686.9	17551.3	17416.1	17256.3	17231.1	17180.3	17069.5	17085.9	17031.5	16975.1	16934.7	16887.9	16775.8	16776.3	16776.3
543.181	46918.8	1032.64	20514.9	18118.1	17837.3	17662.3	17590.7	17460.1	17257.1	17294.1	17248.7	17230.8	17106.9	17172.4	17052.3	17034.9	17087.9	16922.1	16922.1
543.432	46821.7	1047.08	20575.6	18335.1	17909.2	17757.7	17613.9	17495.5	17381.5	17323.3	17340.1	17252.5	17162.7	17166.3	17090.9	17046.3	17087.9	16924.1	16924.1
543.682	47045.7	1045.08	20748.2	18498.2	18091.6	17945.4	17817.2	17713.4	17626.6	17559.4	17504.2	17408.4	17318.6	17306.2	17233	17179.2	17177.2	17137.6	17137.6
543.933	46995.2	1038.1	20871.1	18486.2	18112	17955	17883.6	17751.8	17609.8	17584.2	17453	17478.6	17415.8	17333.2	17295	17309.6	17217	17194.4	17194.4
544.183	47266.7	1037.02	20992.2	18635.8	18223.6	17968.4	17961.2	17893.4	17805.7	17764	17601.8	17609.8	17530.2	17376.8	17480.8	17455.6	17362.8	17299.5	17299.5
544.434	47597.5	1032.88	21205.6	18822.8	18351.4	18240.4	18107.8	18033.8	18019.2	17949.4	17707.3	17705.4	17681.5	17703.1	17708.6	17653.6	17546	17483.6	17483.6
544.684	47749.9	1043.58	21345.1	18906.6	18576	18323.6	18209.3	18130.6	18068.6	18014.4	17974	17809.3	17903.5	17866.8	17777.9	17692.3	17678.3	17743.4	17743.4
544.934	47742.2	1041.54	21286.7	18940.4	18563	18379.2	18368	18189	18263	18041	18034.6	17957.2	17941.4	17870.4	17712.8	17750.8	17748	17624.2	17624.2
545.184	47882.3	1050	21476.1	19097.2	18737.6	18406.2	18438.4	18159.7	18222.2	18050.6	18046.4	17924.8	17977.8	17973.6	17876.6	17832.4	17769.4	17700.2	17700.2
545.435	48218.3	1043.74	21658.5	19242.1	18799.4	18734.4	18547.8	18563.6	18350.2	18337	18282.8	18229.6	18093	18052.2	18022.8	18049.1	17988.8	17933	17933
545.685	48026.7	1043.16	21630	19215.2	18762	18718.6	18620	18427.8	18463.4	18337	18301.2	18208.8	18200.2	18056.4	18123.2	18056.2	17997	17987	17987
545.935	48159.4	1032.8	21743.1	19368.6	19001.6	18875.2	18732.2	18558.2	18481	18427.6	18448.4	18465.3	18318	18177.2	18192.4	18164	18122.4	18131.3	18131.3
546.185	48525.2	1041.44	22036.9	19655.8	19251.4	19036.2	18955.2	18812.4	18718.8	18613	18767.8	18619.8	18551.8	18436.4	18442.2	18428.9	18345.6	18250.1	18250.1
546.435	48429	1036.2	22020.5	19645.9	19195.7	19009.5	18864.1	18716.9	18782.5	18684.5	18568.9	18516.1	18543.8	18392.6	18541.9	18431.9	18380.5	18393.4	18393.4
546.684	48898.1	1048.72	22267.4	19834.2	19365.2	19207.4	19011.8	19015	18894	18795.5	18750.6	18818.4	18626.8	18644.2	18723	18623.7	18531.9	18545.5	18545.5
546.934	48624.6	1042.8	22245.4	19755.8	19419.2	19241.6	19124.6	18949.4	18939.8	18955.6	18787.4	18804.8	18670.2	18615.8	18607.7	18533.2	18640.2	18573	18573
547.184	48798.5	1039.06	22382.3	19906.2	19619.4	19331.4	19281.2	19100.4	19118.8	18987.3	19048.4	18938.6	18851.4	18713.4	18814.8	18743.8	18759.2	18661.6	18661.6
547.434	48973.1	1043.2	22571	20098	19680.3	19516.2	19415	19246.8	19263.2	19157.8	19151.6	19079.8	19006.4	19004.6	18927	18898.5	18889.6	18818.2	18818.2
547.683	49233.5	1036.66	22719.7	20354.4	19955.9	19643.3	19554.2	19467.8	19369.2	19425.1	19276.7	19143.6	19268.4	19159.6	19156	19050.2	18978.6	19020.4	19020.4
547.933	49356.4	1042.04	22857.3	20322.6	20072.7	19877.8	19706.9	19675.5	19503.5	19499.5	19489.5	19352.3	19348.1	19290.5	19159	19280.5	19178.3	19099.1	19099.1
548.183	49465.2	1045.18	23030.3	20475	20160	19905.2	19841.2	19707.4	19653	19548	19492	19539.1	19335.9	19369.8	19371.5	19231.2	19256	19286.2	19286.2
548.432	49185.4	1037.1	22993	20533.6	20109.3	19886.9	19828.7	19808.1	19620.1	19625.7	19466.9	19461.5	19408.2	19401.5	19324.1	19205.7	19245.5	19231.2	19231.2
548.682	49482.9	1043.18	23196.1	20754.7	20293.1	20166.9	19993.3	19985.7	19899.1	19771.9	19659.3	19681.5	19556.1	19635.3	19574.7	19542.1	19445.1	19360.5	19360.5
548.931	49576.2	1048.9	23333.9	20854.7	20488.4	20375.9	20139.2	20117.7	19986.2	19990.5	19795	19725.2	19750	19699.4	19608.5	19628.5	19548.4	19601.2	19601.2
549.18	49783.5	1042.46	23605.4	20946.8	20602	20385.6	20311.8	20197.4	20021.3	19983.4	20050	19748.4	19780.8	19724.8	19800.2	19824.3	19728.8	19692.9	19692.9
549.43	49766.3	1034.46	23617.1	21095.6	20599.5	20491.5	20322.3	20297.7	20122.3	20126.3	20078.5	19883.9	19995.7	19905.1	19790.7	19898.7	19781.3	19833.1	19833.1
549.679	49767.1	1031.52	23602.2	21129.8	20716.1	20535.9	20345.7	20320.2	20195.3	20220.3	20058.3	20068.1	20097.1	19916.7	19993.8	19940.3	19864.1	19836.7	19836.7
549.928	49776.4	1035.74	23783.1	21235.9	20836.7	20671.7	20534.3	20433.3	20338.2	20306.4	20182.5	20032.3	20119.9	20128.9	20129.5	19926.1	19981.2	19901.7	19901.7
550.177	50028.8	1044.32	24031.2	21415.7	20972.9	20751.7	20740.5	20679.4	20572.3	20464.7	20478.7	20473.9	20307.9	20315.3	20310.7	20251.7	20242.1	20122.1	20122.1
550.426	50100.8	1041.96	24021.2	21451.4	21173.5	21008.4	20789.7	20723.1	20591	20524.1	20522.9	20552.3	20424.7	20382.5	20422	20305.2	20350.1	20244	20244
550.675	50124.6	1041.56	24060	21646.1	21181.1	20930.8	20854.7	20788.9	20763.5	20649.8	20554.3	20538.6	20457.1	20413.5	20346.5	20281.9	20406.6	20280.4	20280.4
550.924	50281.5	1047.24	24251	21713.5	21295.7	21105.2	21069.8	20911.8	20995.1	20880.1	20761.1	20700.7	20713.1	20606.5	20509.9	20550.1	20537.3	20424.9	20424.9
551.173	50554.6	1038.8	24487.5	21949.4	21446.8	21369.4	21228.9	21092.4	21091.6	20923.4	20921.4	20908.7	20872.8	20697	20721.2	20793.6	20657.2	20584	20584
551.422	50346.9	1040.7	24496.3	21889.8	21388.7	21377.2	21283.3	21052.3	20928.2	20827.7	20889.5	20743.9	20698.3	20680.9	20709.1	20680	20587.5	20724	20724
551.671	50670.6	1032.04	24672.8	22214	21579.9	21427.2	21496.8	21272.4	21173.7	21078	21144.2	21012.4	20998.5	20954	20930.4	20813.7	20790.8	20870.4	20870.4
551.92	50526.8	1033.56	24663.9	22180.2	21710.8	21576.6	21358.9	21268.9	21232.8	21258.2	21159.1	21026.2	21102	21009.8	20901.6	20878.1	20833.8	20829	20829
552.169	50904.3	1039.84	24866.9	22356.9	21880.4	21794.8	21678.9	21566.1	21535.7	21413.1	21369.7	21348.3	21274.3	21188.9	21152.5	21106.7	21022.1	21021.7	21021.7
552.417	50799.2	1051.76	24865.1	22450.8	21975.9	21752.9	21720.7	21482.9	21437.7	21423.3	21381.9	21291	21312.9	21283.8	21188.5	21128.3	21092.7	21067.9	21067.9
552.666	51135	1039.68	25085.4	22564.4	22110.2	22017.8	21887.8	21793.5	21624.6	21579.3	21525.8	21542.4	21509.4	21363.4	21320.5	21221	21257.1	21257.8	21257.8
552.914	51442.5	1043.55	25227.2	22760.1	22400.9	22148.5	21985.9	21838.1	21764.1	21743.8	21679.8	21617.3	21490.2	21637.4	21513.3	21419.8	21322.7	21398.5	21398.5
553.163	51349.3	1039.36	25372.5	22747.9	22369.4	22002.5	21967.1	21896.2	21899.1	21734.3	21728.7	21660.1	21740.9	21506.9	21469.7	21508.9	21391.7	21416.3	21416.3
553.411	51370.7	1034.74	25336.9	22902.5	22381.4	22297.8	22013	21955	21919.3	21831.1	21726.2	21711.8	21698.5	21678.7	21546.6	21635.2	21491.2	21455.4	21455.4
553.66	51601	1025.5	25403.3	22889.6	22509	22383.7	22176.4	22153.6	22084.3	21868.6	21858	21952.2	21802.8	21768	21773.2	21731.4	21719	21662.8	21662.8
553.908	51882.1	1036.54	25722.5	23169.6	22758.2	22544	22416.5	22365.5	22217	22125	22110.6	22048.4	22028.5	21957.5	21845.8	21897.8	21809.4	21764.8	21764.8
554.156	52107.1	1036.3	25912.3	23237.1	22938.9	22721.6	22695	22463.4	22439.8	22312.4	22269.3	22174.2	22198.1	22189.4	22125.5	21989.2	21984.4	22059.4	22059.4
554.405	52066.8	1030.54	25903.7	23360.6	22974.4	22793.2	22605.6	22502.6	22281	22365.6	22302.5	22222.9	22224.2	22127	22126.7	22119.3	22207.6	21918.3	21918.3
554.653	52266.9	1044.86	26064.8	23546.2	23027	22746.3	22670	22570.8	22586.2	22522.4	22453.2	22336.4	22318.5	22343.5	22158.8	22219	22152.4	22131.5	22131.5
554.901	52384.5	1045.84	26137.8	23549.9	23246.1	23038	22853.9	22840.1	22726.4	22654.6	22558.4	22605.8	22475.5	22473	22369.3	22395.5	22318.7	22316.1	22316.1
555.149	52407.6	1044.44	26187.9	23809.1	23356.5	23048	22979	22810.6	22708.2	22733.9	22627.8	22667.9	22689.8	22587.3	22564.4	22468.2	22444.6	22418.2	22418.2
555.397	52738.8	1046.88	26486.9	23946.6	23542.5	23223.4	23133.8	23088.4	22910.2	22978.9	22806.6	22864.2	22681.4	22775.2	22704.7	22620.7	22671.4	22536.6	22536.6
555.645	52808.6	1040.96	26484.7	23978.6	23490.2	23299	23216.9	23211.1	22983.5	22973.3	22913.7	22738.3	22818.6	22789.6	22719.6	22672.2	22599.2	22672	22672
555.893	52829.8	1036.94	26601.9	24049.3	23497.2	23391.4	23191.5	23122.8	23116.2	23087.2	22941.3	22914	22821.3	22913.2	22748.6	22822.7	22603.4	22729.6	22729.6
556.141	53030.2	1034.7	26732.9	24291	23729.8	23576.2	23425.6	23383.3	23218.8	23315.3	23184.3	23087.8	23108.4	23027	23056.3	22952.1	22996.1	22954.4	22954.4
556.389	53422.7	1034.46	27019.3	24485.1	24108.9	23815.5	23751.4	23561.6	23613	23504.1	23473	23340.2	23347.9	23354	23236.7	23189.9	23154.9	23157.4	23157.4
556.637	53526.9	1032.76	27148	24665.3	24088.8	23976.7	23715.5	23698.8	23660.2	23535.8	23550.9	23487.5	23449.7	23448.5	23372.7	23392.8	23287.6	23210.4	23210.4
556.884	53645.4	1044.13	27210.4	24614.4	24135.6	23922.4	23831.7	23629.4	23651.7	23656.8	23617.5	23494.7	23382.9	23423.6	23364.3	23325.8	23306.9	23305.9	23305.9
557.132	53675.9	1040.34	27237	24692.6	24245	24096.6	23885.8	23731.9	23788.8	23601.5	23703	23557.2	23601.6	23437.6	23397.2	23540.7	23446.5	23312	23312
557.38	53881	1052.29	27337.1	24730.4	24512.3	24193.8	23974.5	23909.3	23854.7	23787.2	23875.6	23640.5	23733.7	23597.1	23586.9	23533.2	23520.6	23453.3	23453.3
557.627	54001.3	1042.22	27436.1	24896.2	24407.2	24098.9	24157.5	24003.9	23866.6	23880.2	23776.2	23907.6	23712.3	23672.1	23685.5	23596.7	23538.7	23574.5	23574.5
557.875	54198.5	1045.38	27586.9	25177.5	24676.3	24606.2	24267.3	24234.2	24137.9	24161.9	24056.7	24010.2	23973.4	23897.9	23947	23767.3	23717.7	23841	23841
558.122	54095.7	1042.4	27622	25205	24711.9	24449.3	24353.3	24272.5	24247.3	24132.8	24158.6	24115.9	23985	23935.6	23933.1	24010.9	23883.3	23872.8	23872.8
558.369	54377.5	1039.6	27941.4	25498.2	24862.6	24729.7	24581.5	24533.7	24393.3	24408.7	24428	24256.4	24187.6	24173.3	24272.2	24132.9	24069.9	24025.6	24025.6
558.617	54471.6	1042.9	28008.4	25471	24975.5	24787.5	24745.3	24605	24587	24435.7	24487.4	24363.4	24289.1	24300.1	24199.5	24305.3	24162.9	24172.2	24172.2
558.864	54373.8	1046.68	27940.9	25523.5	25087.9	24720.7	24773.7	24638.9	24523.5	24546.5	24469.1	24421.4	24439.5	24375.4	24385.1	24283.1	24242.9	24188.9	24188.9
559.111	54874.1	1037.34	28288.4	25729.7	25293.7	25171.7	25003.4	24931.3	24899.1	24767.7	24803.5	24793.1	24706.3	24519.7	24595.9	24550.8	24455.3	24510.7	24510.7
559.359	54609.2	1038.34	28225.6	25760.4	25356.7	24959.8	24977.1	24756	24726.1	24700.9	24693.8	24711.8	24519.6	24559.2	24492.3	24469.6	24410.3	24406.7	24406.7
559.606	55024	1045.32	28436.8	25921.7	25550.3	25216.6	25191.3	25045.7	25008.5	25066.9	24768	24875.6	24838.6	24758.5	24811.3	24712.4	24683.7	24623.2	24623.2
559.853	55038.9	1038.26	28536.3	25946	25597.5	25216.3	25271.6	25137	25108	24933.5	24870.9	24879.2	24741.4	24796.5	24742.8	24815.9	24739.8	24594.6	24594.6
560.1	55227.6	1038.78	28704.4	26023	25629.6	25454.5	25320.6	25313.9	25207.7	25182.6	25042.3	25127.5	24919	24991.1	24920.7	24978.3	24768.4	24745.3	24745.3
560.347	55110	1038.2	28649.6	26107	25692.5	25480.1	25390.7	25216.1	25201.3	25116.5	25146.3	25100.1	25087.2	24934.1	24907.8	24886.7	24891.6	24730	24730
560.594	55136.9	1032.63	28739.3	26266.5	25757	25644.2	25304.1	25389.5	25402.1	25351.9	25165.1	25134.6	25070.2	25007.7	24887.8	25017.5	24936.5	24967.2	24967.2
560.841	55478.3	1037.14	28962.3	26429.1	25952.9	25782.9	25639.7	25465.5	25420	25460.9	25495.6	25263.3	25504.5	25215.1	25286	25250.4	25279.7	25128	25128
561.087	55336.6	1035.28	28952.9	26379.7	25989.7	25788.9	25738.5	25619.1	25632.1	25535.9	25519.7	25373.1	25342.1	25325.1	25284.7	25189.6	25195	25289	25289
561.334	55515.5	1045.28	29065.1	26739.4	26204.9	25984.1	25944.4	25807.9	25727.3	25633.3	25625	25475.5	25534.2	25502.5	25428.7	25436.6	25285.4	25347.9	25347.9
561.581	55529	1045.68	29168.7	26693.6	26308.8	26111.2	26006.3	25939.3	25794.1	25824.5	25707.7	25751.1	25566.1	25640.5	25671.4	25467.2	25584.3	25388.5	25388.5
561.828	55842.5	1050.92	29429.4	26981.8	26460.5	26439.5	26182.6	26126.8	25972.1	25777.8	25807	25845.6	25686.1	25754.7	25796.2	25659	25707	25620.1	25620.1
562.074	55594.1	1047.96	29337.8	26833.5	26464.7	26331	26099.9	25952.5	25928.3	25833.4	25731.3	25842.7	25714.3	25677.7	25677.1	25704.6	25575	25595.9	25595.9
562.321	56102.1	1042.14	29521.2	27182.1	26789.1	26548.2	26478.1	26441.6	26264.7	26188.4	26164.4	26073.8	26051.7	26070.4	25942.2	26017.9	25940.4	25836	25836
562.567	55966.7	1029.78	29443	27174.6	26718.3	26537.8	26383.7	26328.9	26213.8	26255.7	26150.9	26172.8	26049.4	26027.7	25907.4	25940.3	25963.5	25921.5	25921.5
562.814	56271.8	1039.22	29871.9	27457.9	26937.3	26823.1	26696.1	26578.9	26514.2	26495	26365.9	26280.6	26316.5	26285.8	26109.7	26126.3	26190.6	26221	26221
563.06	56163.6	1043.96	29873.5	27462.6	27018.9	26863.5	26597.5	26503	26677.3	26537.6	26487.9	26411.4	26299.2	26305.3	26197.3	26231.8	26212.7	26151.2	26151.2
563.306	55984.5	1033.6	29752.5	27498.8	27071.6	26789	26647.8	26697.9	26550.3	26487.3	26452	26381.6	26285.8	26207.6	26272	26332.6	26299.3	26208.4	26208.4
563.553	56058.1	1036.38	29835.5	27444.6	26992.1	26834.5	26711.4	26650.6	26589.2	26559.8	26582.7	26370	26403.6	26411	26336	26349.6	26279	26261	26261
563.799	56205.2	1036.88	29999.1	27601.4	27200.5	26965.8	26827	26780.4	26716.2	26654.4	26549.2	26576	26511.6	26527.1	26441	26317.3	26431	26363.8	26363.8
564.045	56253.5	1037.26	29935.7	27658.9	27330.6	27074.1	26875.6	26763.9	26818.6	26742.4	26549	26682.3	26648.9	26481.6	26556.4	26466.5	26463.3	26358.4	26358.4
564.291	56549.3	1041.86	30287.2	27941.4	27566.5	27355.8	27286.4	27097.6	27047.7	27033.7	26929.2	26945.9	26892.9	26783.1	26739.4	26815	26692.9	26688.5	26688.5
564.537	56417.4	1043.3	30216.9	27988.8	27536.4	27430.1	27256.3	27210.8	27166.7	27088.1	26986.8	27067.7	26925.2	26908.3	26870.8	26807.3	26855.5	26801.2	26801.2
564.783	56436.5	1045.64	30436.1	28145.4	27742.9	27463.3	27416.8	27251	27292.8	27114.4	27131.1	27082.9	27117.8	26977.3	27013	26836.4	26954.3	26800.2	26800.2
565.029	56610.3	1038.3	30528.3	28263.3	27848.2	27571.1	27561.7	27340.7	27308.7	27278.8	27236.8	27098.7	27098.9	27058.1	27141.2	26913.6	26887	26856.2	26856.2
565.275	56568.9	1032.02	30646.8	28294.9	27742.7	27678.3	27480.4	27540.2	27318.2	27290.7	27298.8	27281	27230.7	27080.1	27141.9	27208.8	26943.1	26959.6	26959.6
565.521	56565	1035.3	30611.6	28257.6	27961.4	27677.3	27591.9	27488.8	27361.1	27390.8	27346.7	27267.7	27251	27197.5	27207.5	27081.8	27179.6	27070.8	27070.8
565.767	56627.4	1041.36	30654.1	28410.9	27954	27822.9	27525.4	27603.9	27556.4	27466.8	27432.5	27348.9	27222.3	27248.8	27244.4	27190.7	27207.8	27125.2	27125.2
566.013	56609.7	1038.16	30646	28428.2	28047.1	27852.8	27767.3	27587.8	27509.7	27432	27393.5	27447.4	27287.6	27341.5	27351.6	27157	27183.7	27128.9	27128.9
566.258	56757.4	1044.12	30757.4	28431.3	28149.6	27802.5	27763.4	27564.9	27754.4	27625.1	27669.4	27538.5	27466.1	27384.4	27486.6	27400.6	27313.6	27396.6	27396.6
566.504	56844.5	1035.1	30913	28679.3	28311.9	28259.9	28054.1	27919.2	27753.6	27798	27735.6	27639	27697.4	27576	27602.6	27529.3	27535	27477.8	27477.8
566.75	56688.4	1042.98	30857.7	28601	28223.9	27934.1	27873.1	27800.9	27775	27560.6	27541.8	27577.8	27538.3	27540.8	27499.5	27522.9	27491.8	27383.2	27383.2
566.995	57115.8	1045.24	31140.4	28736.8	28437.1	28276.8	28086.2	28039.8	27908.5	27777.7	27858.6	27813.8	27722.3	27762.7	27655.7	27693.6	27661	27600.9	27600.9
567.241	56649.3	1031.28	30855.3	28693.9	28235.6	27980.8	27922.2	27852.2	27837.9	27671.3	27617.1	27661.5	27622.6	27490.9	27456	27569.5	27605.6	27392.1	27392.1
567.486	56945.4	1033.02	31106.5	28913.8	28369.9	28391.7	28276	28199.1	28129	28019.2	27933.3	27890.9	27845.6	27746.1	27821	27786.5	27719.6	27615.4	27615.4
567.732	56829.9	1041.28	31062.2	28867.9	28417.7	28154.5	28217.3	28066.5	27984.1	27903.8	27998.5	27821.9	27867.1	27825.3	27867.6	27718	27605.6	27655.1	27655.1
567.977	56753.5	1043.16	30996.5	29000.5	28372.7	28207.6	28132.9	28085.6	28128.1	27927.1	27924.7	27701.4	27789.4	27764.1	27807.1	27695.4	27622.9	27746.2	27746.2
568.222	56950.2	1049.16	31267.8	29059.3	28694.9	28478	28439.8	28422.9	28175.3	28209.4	28118.9	28039.4	27969.6	27980.3	27844.9	27835.8	27811.6	27945.1	27945.1
568.467	57048.3	1049.62	31327.8	29175.3	28717.8	28670.3	28462.2	28400.5	28472.6	28304.4	28189.8	28220.2	28072.1	28145.6	27972.9	28071.8	28093.4	28116.4	28116.4
568.713	56923.2	1050.98	31355.6	29069.4	28853.4	28594.3	28414.7	28470.1	28319.3	28254.8	28195.9	28363.4	28074.5	28187.7	28087	28039.8	28044.3	27961.7	27961.7
568.958	56950.2	1040.9	31321.3	29137.4	28863.1	28518.8	28418.3	28371.4	28335.6	28373.7	28318.9	28209.4	28246.3	28121.2	28140.9	27981.4	27974	28058.2	28058.2
569.203	56940.2	1032	31328.4	29234	28799.7	28523.5	28488.4	28415.2	28293	28386.2	28175.5	28167.4	28148.9	27964.4	28111.6	28030.5	28012.5	27916.6	27916.6
569.448	56935.3	1038.48	31432.3	29229.7	28813.9	28649	28509.4	28573.5	28212.8	28312.4	28199.8	28190.5	28189.1	28136.4	28113.7	28052.2	28016.4	28044.4	28044.4
569.693	56969	1040	31406.1	29324.2	28903.6	28678.3	28613.7	28563.7	28500.5	28299.2	28406.5	28305.2	28304	28156.4	28179.9	28109.6	28199.4	28133.4	28133.4
569.938	56873.9	1046.8	31365	29355.3	28953.1	28770.3	28605.7	28592.4	28394.3	28440.5	28419.6	28313.8	28320.7	28172.6	28219.2	28203.1	28078.9	28137.9	28137.9
570.183	57150.4	1042.22	31538.3	29484.4	29059.5	28885.6	28755.2	28754	28647.3	28484.7	28501.5	28545	28423.4	28329.7	28386.9	28398.1	28264.8	28236	28236
570.427	56982	1035.58	31479.9	29337	29035.8	28883.2	28644.8	28611	28585.1	28577.9	28452	28320.3	28468.9	28396.5	28361	28304.8	28287.2	28235.3	28235.3
570.672	57054.2	1035.14	31627.8	29487.5	29030.6	28814.2	28704.5	28756.2	28665.3	28543.5	28573.4	28458.3	28448.1	28436	28278.1	28330.2	28421	28298.9	28298.9
570.917	57062.4	1045.02	31696.8	29522.2	29178.4	28970.3	28879.1	28785	28777.6	28644.8	28548	28598.6	28553.7	28550.7	28396.5	28403.2	28454	28382.3	28382.3
571.162	56847.1	1038.9	31614.1	29590.6	29145	28882	28946.6	28739.9	28587.2	28752.3	28592.3	28438	28640.5	28612.9	28494.7	28365.9	28410.4	28277.6	28277.6
571.406	57267.2	1034.58	31834.1	29910.6	29484.1	29227.8	29120	29033.2	28936.3	29018.2	28887.7	28883.9	28771	28793.9	28757.4	28738	28565.7	28681.2	28681.2
571.651	57181.3	1033.08	31865	29794.6	29515	29181.8	29148.7	29067.4	28996.1	28896.6	28876	28892.9	28781.6	28759.5	28818.6	28730.7	28829.8	28587.6	28587.6
571.895	56983.4	1027.44	31768.8	29731	29320.9	29208.3	29037.2	28990.2	28973.1	28997.4	28871.9	28886	28839	28799	28510.2	28539.6	28497.8	28604.6	28604.6
572.14	57088.9	1040.26	31954.4	29941.1	29371.1	29315	29238.7	29154.9	29057.2	29059.6	29003.9	28920.1	28810.7	28909.8	28862.1	28821.8	28825.7	28775.1	28775.1
572.384	57053.2	1050.4	31823.6	29889.7	29516.6	29175.2	29195.2	29109.9	28989	28963.2	28959.2	28993.5	28924.7	28754.9	28785.9	28856.8	28921.9	28765.2	28765.2
572.628	57034	1040.46	31928.3	29822	29419.5	29324	29228.2	28961.6	28963.9	28881.9	28881.6	28947.1	28845	28773.8	28777.6	28721.5	28829.4	28702.4	28702.4
572.873	57301.8	1042.46	32028.8	29998.9	29489.5	29425.4	29348.8	29252	29268.1	29032.5	29155.9	29117.4	29142.9	29004.9	29030.4	29002.6	29005.8	28929.7	28929.7
573.117	57228.4	1052.58	31964.8	30005.6	29612.5	29398.9	29319.1	29264.7	29291.5	29272.8	29168.9	29034.1	29091.2	29012.8	29034.7	29000.1	28847.9	28943.2	28943.2
573.361	57257.8	1041.12	32131.7	30260.1	29788.6	29496	29448.6	29493.2	29354.6	29443.2	29393	29248.3	29284.4	29190.8	29204.3	29149	29039	29124.1	29124.1
573.605	57163.5	1035.94	32087.1	30128.3	29907.7	29630.4	29611	29388.9	29264.5	29378	29355.4	29324.1	29308.2	29083.1	29186.4	29134.6	29071.3	29094.6	29094.6
573.849	56983	1041.62	32111.5	30210.4	29812.2	29695.3	29457.9	29454.5	29314.7	29385.9	29216.6	29279.4	29051.7	29175.2	29140.1	29284.9	29147.9	29027.9	29027.9
574.093	57077.7	1042.2	32248.6	30393.1	29991.3	29701.6	29644.8	29503.1	29522.1	29451.4	29369.8	29293.2	29393.1	29296.5	29233.6	29299.6	29235.2	29167.7	29167.7
574.337	57142.3	1046.94	32382	30468.5	29956	29881.9	29732	29709	29623.1	29549.2	29542.7	29454.6	29506.2	29532.8	29382.2	29282.6	29414.4	29424.2	29424.2
574.581	57205.2	1044.38	32303.6	30400.9	30145.3	29877.5	29854.7	29695.4	29630.5	29656.5	29641.8	29539.5	29488.4	29471.4	29413.5	29372.1	29476.2	29271.7	29271.7
574.825	57265.4	1044.76	32412.4	30481.1	30235.1	29963.9	29718.5	29832.5	29699	29623.7	29613.9	29486.2	29521.7	29454.1	29481.8	29435.8	29480.4	29426.9	29426.9
575.069	57026	1039.06	32271	30390.6	30043	29927.3	29837.2	29894.9	29726.6	29585.4	29552.5	29445.2	29463.7	29557.4	29454.4	29420	29364	29255	29255
575.313	57150.5	1042.26	32468.2	30629.5	30272.7	30066.6	29951.4	29829.8	29789.5	29932.6	29674.1	29629.7	29668.8	29688.6	29740.9	29602.5	29569.6	29499.2	29499.2
575.556	57267.2	1038.4	32635.6	30731.6	30350.5	30116.3	30008.8	29949.6	29846.2	29965.1	29855	29883.8	29681.9	29756.5	29675.8	29709.3	29743	29728.8	29728.8
575.8	57107.4	1053.64	32542.1	30643.9	30331.8	30213.2	30024.6	29967.7	29803.3	29910.9	29876.6	29688.5	29875	29703.5	29630.1	29661.6	29734.5	29540.4	29540.4
576.044	57296.3	1051.44	32632.9	30783.8	30514.7	30256.8	30145.7	30121	30076.5	30049.1	29941.4	29941	29833.1	29907.9	29831.1	29749.2	29672	29807.1	29807.1
576.287	57103	1050.8	32549.5	30756.2	30259	30087	30153.1	29987.9	29975.9	29995.9	29962.7	29739.8	29852.9	29703	29690.3	29750.2	29607.1	29625.8	29625.8
576.531	57112.5	1037.1	32540.3	30792.5	30291.7	30133.9	30141.5	29989.5	30011.4	29851.3	29878.6	29780.5	29704.7	29706.7	29808.1	29716.1	29662.8	29789.6	29789.6
576.774	57143.9	1041.32	32572.8	30728.8	30472.5	30054	30018.1	29961.8	29937.8	29995.2	29779.5	29851.9	29831.6	29736.3	29749.8	29778.1	29756.9	29649.5	29649.5
577.018	57160.1	1046.68	32536	30743.3	30399	30171.6	30137.7	30077.8	30054.2	29939.9	29834	29779.5	29653.9	29864.2	29766.6	29585.5	29739	29691.6	29691.6
577.261	57202.3	1038.5	32485.4	30722.8	30254.1	30174.9	30141.3	30083	29964.9	29936	29927.9	29954	29855.1	29812.8	29729.6	29717.1	29755.4	29678.2	29678.2
577.504	57418.9	1046.6	32714.7	31029.6	30597.7	30366	30391.3	30134	30165.9	30209.3	30181.1	30135.7	30118.5	29961.2	29933.5	29976.5	29857	29912.1	29912.1
577.747	57213.5	1039.26	32608	30989.3	30643.5	30309.5	30275.3	30151.4	30114.2	30117.7	30148.3	30060.2	30056.6	29893.9	29951.4	29897.2	29890.6	29854.6	29854.6
577.991	57224.8	1044.76	32627.8	31034.1	30639.8	30448.7	30406.9	30418.7	30260	30096.3	30197.3	30102.5	30105.5	30066.1	30014.2	29983.7	29880	29931.3	29931.3
578.234	57186.4	1032.46	32644.3	30963.2	30621.1	30455.1	30455	30359.7	30175.8	30241.1	30096.7	30067.5	30025.3	30082.4	29938.6	29912	29924.8	30016.8	30016.8
578.477	57204	1038.3	32679.8	31008.8	30662.6	30650.6	30491.8	30310	30328.7	30239.7	30184.5	30205.6	30104.4	30156.6	30028.7	29976.4	29991.6	29961.5	29961.5
578.72	57065.4	1045.12	32665.4	31072.4	30531.5	30482.1	30274.4	30400.7	30185	30171.3	30164.6	29997	30025.7	30022.7	29994.7	29953	29917.7	29965.8	29965.8
578.963	57143.8	1040.96	32678	31049.3	30636.1	30498.5	30555.1	30247.6	30290.7	30333.5	30210.8	30183.3	30098.6	30197.9	29980.1	29988.1	30128.9	30175.7	30175.7
579.206	57031.3	1043.5	32608	31045.2	30733.1	30596.2	30383.3	30154.2	30313.4	30250.2	30246.7	30137.8	30240.9	30280.2	30087.8	30166.2	30143.1	30118	30118
579.448	56937.6	1038.6	32604.2	30921.8	30642.8	30457.2	30375.1	30294.8	30340.8	30174.6	30264.1	30268.9	30150.8	30093.1	30126.2	30264.5	30036.7	30065.8	30065.8
579.691	57164.3	1033.68	32825.7	31253.4	30867.7	30755.7	30544.4	30662.4	30461.4	30420.3	30324.4	30398.1	30350.3	30317.6	30351.5	30327.5	30218.2	30325.3	30325.3
579.934	57055.7	1039.24	32728.9	31058.3	30797.9	30595.6	30456.9	30526.2	30351.1	30305.8	30236.8	30241.4	30195.8	30136.3	30050	30154.3	30249.1	30179.3	30179.3
580.177	57236.9	1041.8	32762	31128.4	30879.4	30607.3	30560.4	30569.3	30442.4	30281.1	30377.6	30331.8	30428.5	30252.3	30185.1	30215.9	30264.9	30367.5	30367.5
580.419	57075.1	1041.92	32734.6	31131.7	30954.1	30731	30642.4	30714.9	30532.1	30523.8	30439.8	30406.9	30429	30366.4	30357.4	30284	30369.2	30373.8	30373.8
580.662	57277.5	1041.76	32985.3	31501.7	31007	30819.3	30861.8	30826.4	30738	30633.2	30617.4	30521.7	30571.5	30576	30380.7	30478.6	30604.5	30457.1	30457.1
580.905	57216.7	1042.1	32956.2	31523.4	31231.4	30816	30946	30802.5	30764.5	30736.4	30667.3	30725	30662.8	30557.6	30623.7	30615.5	30608.3	30506.2	30506.2
581.147	57112.7	1045.89	32956.4	31457.5	31130.9	30975.1	30784.9	30817.1	30739.5	30744.1	30616.2	30614.4	30530.9	30528.7	30687	30575.1	30552.7	30527	30527
581.389	57057.3	1076.62	32999	31380.7	31118.6	30865.7	30838.9	30875.8	30839.4	30676	30610.7	30593	30715.3	30588.2	30577.1	30620.4	30501.1	30441.2	30441.2
581.632	56984.7	1050.54	32982.3	31399.4	31127.7	30936.9	30809	30706.9	30736.4	30699.3	30699.6	30629.7	30499.9	30695.1	30625.2	30692.3	30571.3	30462.6	30462.6
581.874	57140	1043.52	33180.8	31484.2	31117.2	30978.9	31047.4	30960.1	30814.1	30744	30715.3	30780.7	30814	30723.4	30647.1	30655	30637.2	30571.2	30571.2
582.116	57165.2	1030.2	33063.3	31569.7	31169	31254.1	30927.1	31023.9	30923.8	30760.9	30724.7	30799.8	30880.5	30784	30661.8	30803.7	30571.8	30569.1	30569.1
582.359	56920.6	1034.41	32939.5	31268.1	31189.6	31053.3	30913.8	30822.2	30902.2	30762.8	30583.4	30750	30643	30624.6	30637.7	30674.7	30560	30640.5	30640.5
582.601	57090.1	1043.86	33117.4	31593.6	31316.5	31021.6	31087.6	30972.2	30932.6	30913	30844.2	30747.5	30739.2	30732.7	30780.7	30753	30612.9	30709.5	30709.5
582.843	57016.5	1035.64	33097.1	31553.5	31185.2	31134.2	31070	30959.6	30893.5	30823.8	30841	30808.9	30875.4	30796.7	30703.8	30801.9	30760.3	30702.7	30702.7
583.085	56828.9	1048.98	32977.4	31558.7	31242.8	31045.3	30882.2	30942	30888.7	30816.1	30802.4	30875.3	30670	30711.3	30711.7	30681.2	30577.8	30542	30542
583.327	57040.5	1038.04	33005.4	31487.4	31221.3	31090.1	31031.2	30958	31024.1	30904.6	30898.3	30896.8	30787.6	30685	30716.4	30700.8	30709	30671.4	30671.4
583.569	57120.2	1032.8	33082.6	31658.5	31388.4	31148	31068.3	31028.6	30907	30923.1	30917.1	30795.7	30748.4	30828.9	30775.9	30743.2	30802.9	30627	30627
583.811	57109.9	1043.4	33101.6	31612.3	31427.6	31360.1	31148	31019.5	30970.7	31076	30961.6	30882.2	30925.9	30769.8	30792.9	30875.9	30925	30694.4	30694.4
584.053	56905.4	1046.02	32977.3	31671.7	31356.9	31183.2	31145.6	31016.6	30947.3	30946.2	30902.8	30960.4	30959	30894.1	30762.4	30764.6	30806.2	30788.6	30788.6
584.295	56971.6	1041.42	32994.9	31636.5	31326.1	31242.4	31089.4	31087.2	31022.5	30899.8	30796.3	30976.6	30866	30740	30793	30796.3	30835	30883.7	30883.7
584.536	57205.2	1039.02	33208.8	31821.4	31542.3	31418.2	31356.4	31233	31199.4	31170.4	31208.3	31108.5	30981.2	30993.7	31043.7	30910.5	30953.4	30854.4	30854.4
584.778	56830.9	1036.28	33020.3	31632.4	31467.3	31122.5	31054.3	31035	30939.9	30984.7	30873.8	30953.6	30846.9	31002.6	30782.3	30831	30699	30749.7	30749.7
585.02	57065.4	1043.22	33235.5	31847.6	31502.8	31377.3	31320.2	31096.3	31228.9	31081.3	31100.7	31061	31092.9	31099.7	30940.2	30965.4	30947	31043	31043
585.261	56985.2	1044.5	33142.9	31764.6	31534.3	31277.7	31273	31229.4	31136.6	31082.2	31073	30960.7	30914.7	31067.8	30933.4	30885.5	30953.5	30825.4	30825.4
585.503	56861.4	1043.82	33094.5	31734.7	31331.5	31352.1	31025.6	31068.7	31165.6	31126.2	30942.3	30830.7	30957.7	30934.4	30947.3	31039.6	30888.5	30731	30731
585.744	57070.8	1035.02	33179.8	31816.4	31589.5	31396	31293.3	31118.9	31134	31234.1	31107.2	31185.2	31224.5	31208.6	31146.9	31082.3	31049.8	30982.4	30982.4
585.986	57011	1036.72	33137.7	31739.4	31542.4	31349.7	31269.5	31203.7	31089.8	31144.7	31137.7	31086.4	31079.4	31048.7	31048.3	31050	31076.1	30927.5	30927.5
586.227	57048.4	1043.1	33248.3	31858.4	31600.9	31382.4	31429.1	31371.8	31257.6	31267.4	31094.5	31192	31095.7	31097.4	31051.6	31084.2	31011.7	31091	31091
586.468	56743.5	1037.8	32988.2	31911.5	31520.5	31192.5	31376.1	31119.7	31047.1	30893.7	31011.7	31070.5	30968.3	31053.3	30982.6	30881.9	30955.1	31030.7	31030.7
586.71	56955.5	1037.34	33167.7	31801.8	31580.4	31334.6	31406.7	31377.7	31353.5	31187.6	31122.3	31113.3	31070.6	31212.2	31136.4	31179.7	31049.4	31033.6	31033.6
586.951	57022.2	1047.7	33224.7	31962.9	31592.8	31499.8	31296.8	31435.5	31326.3	31240.9	31129.9	31116.2	31148.8	31107.6	30985.8	31147.9	31123.4	31022.8	31022.8
587.192	56816.3	1032.92	32947.2	31558.5	31429.4	31215.8	31160.3	31131	31143.5	31136.7	31119.4	31211.2	31024.1	31008	31015.4	30863.3	30970.3	30929.6	30929.6
587.433	57027.4	1039	33167.1	31813.1	31570.2	31516.3	31215.9	31291.8	31209.4	31196.6	31257.9	31283.5	31036.4	31134.7	31193.9	31080.8	31114.8	30972.4	30972.4
587.674	57079.8	1034.02	33203.8	32021.8	31632	31499.9	31366.6	31290	31328.4	31204.4	31269.5	31374.1	31185.1	31069	31071.4	30922.9	31155.3	31045.8	31045.8
587.915	57031.7	1038.9	33178.1	31898.4	31606.4	31373	31355.8	31361.4	31324.5	31210.5	31236.2	31113.8	31008.5	31062.2	31120.6	31073.6	31103.8	31076.5	31076.5
588.156	57011.8	1043.18	33155	31815.6	31620.4	31392.3	31401.1	31363.7	31276	31194.6	31138.3	31034.9	31099.9	31114.6	31164.1	31004.6	31126.1	31043.4	31043.4
588.397	57185.8	1041.56	33279.7	31912.6	31644.5	31589	31414.3	31500.2	31401.1	31336.1	31238.8	31216.1	31250.2	31195.4	31133.9	31080.3	31143	31066.4	31066.4
588.638	57027.4	1041.72	33124.4	31976.7	31649.3	31450.8	31476.7	31406.3	31475.6	31379.9	31296.3	31345.7	31226.9	31231.7	31133.1	31118.9	31176.4	31180.7	31180.7
588.879	57029.9	1049.38	33104.8	31948.1	31719.3	31505.9	31533.1	31372.3	31378.3	31278.7	31384.3	31292.3	31145.3	31229.7	31196.5	31235.7	31177.2	31141.5	31141.5
589.119	57031.3	1035.34	33222.1	32085.3	31755.2	31706	31605.8	31606	31436.7	31509.6	31328.7	31342.1	31317.4	31287.6	31416.2	31351.9	31333.5	31122.9	31122.9
589.36	56912.2	1041.94	33245.8	31960.6	31729.5	31624.9	31488.9	31442.4	31398.1	31465	31285	31294.5	31375.6	31332.7	31335.2	31311.9	31236.6	31133.7	31133.7
589.601	56808.3	1037.44	33282.5	32077.9	31638.9	31645	31540	31451.1	31506.4	31338.8	31303.2	31319.9	31308.7	31385.4	31209.8	31221.3	31172.8	31163.5	31163.5
589.841	57084.7	1038.04	33315.2	32147.7	31903.6	31807	31671.2	31665.7	31736.2	31572.8	31483.7	31529.2	31494	31425.1	31478.7	31352.9	31560.1	31455.3	31455.3
590.082	56922.8	1040.34	33268	31984.2	31823.6	31757.8	31622.2	31547.5	31566.3	31483.5	31407.6	31437.6	31449.8	31419.1	31378.9	31278.7	31276.3	31395.2	31395.2
590.322	56989.8	1049.74	33328.8	32179.5	31878.1	31730.9	31713.9	31689	31658.5	31516.7	31541.7	31511.4	31415.4	31425	31488.4	31422.2	31346.7	31376.8	31376.8
590.563	57080.2	1038.72	33322.9	32179.8	31850.8	31860	31779.6	31653.5	31676.3	31601.4	31639	31528	31490	31553.1	31483.7	31282.6	31354.8	31505.8	31505.8
590.803	57030.4	1043.78	33281.3	32079.7	31928.7	31865.6	31729.6	31715	31619	31537.7	31586.8	31628.3	31613.2	31550	31404.2	31411.9	31345.6	31378.8	31378.8
591.043	56767.3	1039.4	33133.8	32077.6	31692.4	31566.6	31508.5	31514.7	31478.3	31459.9	31462.7	31444.3	31269.8	31363	31360	31285.2	31279.8	31185.4	31185.4
591.284	57019.5	1033.78	33191.3	32127.2	31893.6	31821.1	31663.1	31593.3	31613.9	31572	31485.1	31500.4	31628	31542.3	31402.7	31535.1	31369.7	31333.3	31333.3
591.524	57055.3	1030.42	33277.6	32108.5	31974	31792.6	31801.2	31698.4	31644.8	31676.1	31733.5	31514.6	31669.1	31527.2	31500.8	31580	31580.4	31425.3	31425.3
591.764	56915.1	1032.44	33221.4	32151.4	31795.7	31752.2	31704.2	31719.7	31639.5	31561.3	31529.9	31433.7	31397.4	31518.1	31360.9	31442.2	31352.2	31403.7	31403.7
592.004	56946.6	1050.82	33247.6	32034.8	31797.9	31754.1	31545.8	31670.5	31642.4	31672.6	31549.2	31594.5	31585.9	31476.5	31396	31556.3	31321	31437.8	31437.8
592.244	57264.7	1036.86	33450.2	32525.6	32224.4	31938.2	31947.9	31930.3	32044.5	31852.8	31800.9	31831.8	31767.7	31726.9	31731.8	31585.2	31657.6	31766.1	31766.1
592.484	56941	1038.12	33211.7	32124.5	31969.6	31867.2	31917.1	31820	31832.7	31731.9	31761.9	31671.9	31597.8	31631.1	31667.2	31603.6	31656.2	31509.5	31509.5
592.724	56942	1048.62	33278.1	32247.7	32096.8	31864.4	31880.4	31765.2	31624.2	31746.9	31670.2	31815.2	31688.1	31709.4	31547.5	31627.3	31546	31526.6	31526.6
592.964	57085.1	1038.4	33366.1	32344	32047.8	32032.4	31937.7	31927.9	31839.1	31771	31830.9	31666	31641	31756.7	31661	31681.9	31593.4	31646.8	31646.8
593.204	56932.8	1039.14	33260.6	32228.5	31895.1	31870.7	31833.6	31833.8	31750.6	31654.7	31676.9	31732.5	31663.4	31632.9	31511.1	31600.7	31620	31542.9	31542.9
593.444	56986.9	1044.04	33357.7	32243.7	31996.2	31935.4	31857.2	31920.3	31855.4	31702.3	31830.6	31725.4	31652.6	31603.9	31578.7	31680.1	31572.8	31483.4	31483.4
593.683	56887.7	1045.68	33354.5	32320.3	32155	31805.9	32011.2	31874.9	31770.5	31871.4	31773.4	31671.6	31884.2	31646.2	31692.8	31574.9	31634.9	31610.3	31610.3
593.923	56771.7	1050.62	33320.5	32372.8	32097	31886	31899.9	31867.9	31719.3	31755.9	31760.3	31694.4	31721.4	31626.9	31612.7	31619.2	31520.1	31524.7	31524.7
594.163	56677.8	1038.32	33215	32102.7	32051.5	31887.7	31666	31661.7	31691.9	31666.6	31722.2	31599.3	31544.5	31628.6	31556.2	31452.4	31537.9	31404.1	31404.1
594.402	56820.8	1033.88	33302	32317.1	32082.4	32007.7	31807.3	31836.4	31768.9	31863.9	31795.5	31745.7	31665.6	31607.8	31543.5	31585.2	31562.1	31550.6	31550.6
594.642	57009.7	1036.56	33474.9	32365.2	32275.9	32110.5	31977.5	31989.6	31849.2	31809.4	31912.2	31791.8	31772	31892.3	31700.7	31599.7	31676	31629.5	31629.5
594.881	56569	1041.32	33207.3	32198.5	32051.1	31999.5	31682.1	31648	31842.9	31623.5	31675.8	31577.7	31642.4	31575.8	31496.5	31531	31569.5	31540.1	31540.1
595.121	56787	1040.84	33375.4	32423.9	32019.4	31997.2	32049.1	31917.3	31979.1	31754	31930.2	31852.3	31763.9	31681.7	31832.7	31720.8	31694.3	31649.8	31649.8
595.36	56359.3	1041.23	33269.7	32121.6	31984.3	31884.1	31766.8	31723.4	31558.4	31704.1	31574.6	31632.2	31515	31644.5	31479.3	31428	31490.9	31416	31416
595.599	56424.7	1041.88	33290.9	32276.4	31926.8	31913.8	31774.5	31768.7	31722.9	31623.9	31630.1	31547.2	31597	31683.5	31610	31556	31395	31585	31585
595.839	56402.6	1042.72	33207.9	32175.4	32030.3	31792.2	31784.6	31702.8	31680.9	31583.4	31677.1	31540.3	31591	31671.3	31544.4	31403.8	31455.5	31445.5	31445.5
596.078	56346.7	1041.74	33192.4	32235.7	31877.4	31916.6	31695.4	31864.1	31786.2	31740.6	31699.7	31558.5	31530.6	31610.5	31592.5	31668.3	31519.4	31578.8	31578.8
596.317	56296.2	1043.84	33270	32316.1	32000.3	31957.2	31756.5	31669.8	31624.4	31699.6	31703.8	31652.9	31720.1	31667.4	31573.2	31456.4	31587.4	31546.1	31546.1
596.556	56317	1040.48	33177.6	32228.1	31948.3	31932.8	31899.3	31969.5	31864.2	31763.9	31724.6	31630.4	31769.7	31615.8	31700	31657	31506.2	31607	31607
596.795	56085.8	1035.02	33114.8	32251	31992.3	31811.9	31812.2	31739	31570.7	31726.2	31718.7	31493.3	31592.4	31538.3	31591	31583.1	31561.6	31511.3	31511.3
597.034	56044.2	1043.42	33184.2	32229	32064.2	32022.2	31848.8	31754	31675.1	31956.8	31647.8	31695.2	31660.7	31835.9	31719.1	31768.7	31639.6	31501.5	31501.5
597.273	55959.2	1039.22	33189.3	32153.6	31955.4	31877.9	31848.6	31705.6	31845.7	31788	31746.4	31833.5	31711.5	31678.3	31692.7	31765.8	31556.8	31616.5	31616.5
597.512	56142	1035.14	33366	32375.4	32235.4	32049.4	32036.9	32145.7	31927.6	31882.5	31845	31912.4	31932.6	31911.8	31718.8	31790.6	31897.6	31716.9	31716.9
597.751	55765.6	1045.48	33097.9	32209	31988.6	31936.6	31834.4	31879.9	31744.7	31681.4	31718.4	31688.1	31635.5	31763.9	31655.3	31599.4	31592.4	31708.6	31708.6
597.99	55746.3	1032.3	33132.7	32195.7	31906.2	31850.1	31831.9	31833.5	31658.2	31714.1	31823.1	31688.5	31597	31644.7	31616.2	31710.2	31630.7	31573.2	31573.2
598.228	55672	1036.8	33026.5	32110.9	32002.6	31846.9	31646.1	31830.7	31570.6	31748.2	31705.9	31560.4	31567.8	31639.6	31729.9	31581.2	31699.2	31491.2	31491.2
598.467	55700.7	1039.92	32976.6	32128	31817.3	31882.2	31733.3	31679.3	31726	31732.9	31668.8	31721	31581.8	31660.6	31588.4	31624	31551.3	31644.7	31644.7
598.706	55670.7	1041.74	33171.9	32128.8	32017.4	31896.7	31804.7	31790.4	31851.6	31755.5	31632.6	31610.3	31715.6	31790.5	31641.1	31642	31547.3	31603.1	31603.1
598.944	55256	1036.38	32904.7	32111.8	31709.5	31658.7	31647.4	31493.1	31642.3	31569.8	31464.2	31528.6	31388.9	31568.9	31485.4	31359.2	31410	31414.7	31414.7
599.183	55606.8	1044.48	33232.1	32278.4	32050.2	31911.7	31936.8	31888.5	31875.3	31874.2	31876.8	31746.8	31734.4	31798.5	31826.8	31764.3	31827.2	31688.5	31688.5
599.421	55481.6	1038.02	33132.7	32326.8	31913	31911.5	31848.7	31815.1	31750.8	31851.9	31780.1	31693.7	31653	31827.3	31616	31619.4	31769.2	31695.8	31695.8
599.66	55382.9	1040.66	33143.9	32256.2	32104.1	31844.2	31788.8	31807.9	31779.7	31754.7	31569.8	31679.8	31697.5	31699.2	31725.8	31549.8	31543.5	31726.5	31726.5
599.898	54986.2	1043.52	32914.5	31875.4	31729.7	31654.4	31611.7	31651.9	31566.4	31507.1	31463.3	31576.8	31598.1	31362.1	31561.1	31445.5	31362.5	31465.4	31465.4
600.136	55379.8	1043.3	33136.6	32144.7	32022.9	31877.5	31814.8	31824.2	31730.8	31754.4	31747.3	31761.8	31695.2	31662.7	31582.7	31626.6	31595.8	31505	31505
600.375	55087.5	1033.74	32870.1	32108.9	31803.5	31771.9	31689.2	31645.8	31642.4	31648.4	31538.8	31609.5	31635.1	31547.3	31478.6	31540.4	31388.8	31479.4	31479.4
600.613	55049	1035.17	32890.6	32017.9	31946.6	31803	31811.1	31617.2	31629.8	31703.4	31602.6	31632	31570	31560.7	31486.2	31562.8	31480.6	31439.4	31439.4
600.851	55059.1	1038.3	32856.1	32075.2	31975.1	31790	31656.1	31611.7	31660	31544.9	31711.8	31588.9	31587.6	31486.1	31701.7	31529.8	31483.6	31483.3	31483.3
601.089	54978.2	1043.72	32767.5	31974.7	31756.8	31664.7	31724.2	31596.5	31585.5	31488	31501.8	31614	31372.7	31584.5	31398	31475.7	31418.8	31381.2	31381.2
601.327	54932	1045.85	32718.8	31876.2	31695.6	31673.2	31497.3	31556.4	31424.6	31407.7	31483.4	31570.7	31399.3	31446.8	31318.3	31194.4	31362.6	31258.5	31258.5
601.565	54755.9	1043.5	32704.2	31967.8	31710.1	31674.1	31654.2	31538.8	31430.9	31518.8	31610.3	31445.6	31393.4	31436.5	31429.9	31437.2	31323.8	31399.7	31399.7
601.803	54790.1	1037.98	32730.4	31923.3	31670.1	31667.5	31521.6	31535.1	31538.4	31401.7	31488.7	31409.3	31406	31353.1	31458.8	31393.1	31373.1	31338.2	31338.2
602.041	54730.8	1029.9	32721.1	31878.9	31787.1	31622	31582.6	31461.7	31514.7	31427.6	31280.8	31369.7	31482.4	31504.5	31437.7	31382.7	31449.1	31360.6	31360.6
602.279	54477.6	1043.72	32666.5	31867.3	31643.9	31491.1	31387.3	31397.3	31557.6	31471.1	31334.1	31415	31347.4	31303.6	31220.7	31343.3	31304	31226.3	31226.3
602.516	54285.6	1033.06	32477.9	31730.4	31519.2	31391.2	31279.3	31341.9	31335.3	31303.6	31387.4	31123.5	31197.5	31178.2	31100.9	31260.3	31111.7	31167.8	31167.8
602.754	54336.8	1038.5	32404.3	31642.9	31548.1	31479.9	31314.2	31310.1	31371.4	31377.8	31424.6	31228.1	31234.5	31262.8	31236.8	31144	31137.7	31286.8	31286.8
602.992	54557.1	1042.38	32643.5	31841.2	31686.7	31738.5	31533	31462.3	31458.4	31370.6	31498.9	31407.4	31338.1	31260.4	31269.8	31383	31371	31320	31320
603.229	54359.2	1038.34	32500.1	31799.8	31652	31421.6	31423.4	31489.1	31439.6	31341.4	31292	31277.3	31450.3	31174.5	31277.6	31335.5	31281	31282.5	31282.5
603.467	54337.9	1039.98	32519.6	31748.5	31687.3	31559	31545.4	31273.8	31361	31367.1	31132.8	31221.6	31250.6	31229.8	31232	31181.5	31238.9	31154.7	31154.7
603.704	54050.7	1038.96	32340.9	31659.3	31572.6	31424	31210.8	31360.2	31371.9	31407.6	31176.5	31031	31226.5	30966.8	31155.3	31152.7	31117.6	31116.3	31116.3
603.942	53791.1	1037.1	32324.9	31539.3	31371.7	31379.5	31175.8	31376.6	31225.3	31282.7	31141.1	31084.1	31017.2	30973.1	31146.5	31060.1	31228.3	31085	31085
604.179	53754.5	1037.76	32285.9	31667.1	31451.6	31392.5	31231.7	31183.9	31238.7	31199	31189.3	31159.1	31018.8	30912.5	31121.7	31015.7	31012.5	31141.2	31141.2
604.417	53718.8	1029.96	32245.8	31571.5	31351.6	31238.1	31215.8	31301.3	31151.7	31329.4	31172.9	31132.4	31085	31073.4	31125.5	30874.9	31087.6	30997.2	30997.2
604.654	53347.8	1041.4	32079.1	31444.1	31204.5	31040.4	31139.3	31091.7	30885.8	30939.7	31141.4	30915	30827	30835.3	30906.1	30859.8	30930	30840.4	30840.4
604.891	53249.3	1038.32	31951.9	31278.2	31151.1	31048.1	31010.9	30906.6	30863	30969.1	30923.6	30924.7	30809.2	30807.9	30777.5	30748.5	30932.2	30677.9	30677.9
605.128	53178	1043.06	32040.6	31388.6	31115	31073.4	30950.2	30928.9	31014.6	30853.6	30905.4	30901.5	30800.9	30735.9	30738.9	30751.6	30807.4	30718	30718
605.366	53074.3	1037.52	32004.6	31244.9	30975.8	30983.6	30909.5	30786.8	30891.9	30897.4	30770.8	30750.7	30733.8	30723	30857.4	30701.6	30562.4	30822.4	30822.4
605.603	52953.9	1038.22	31907.9	31296.9	30939.5	30895.8	30797.4	30899	30741	30833.4	30676	30773.3	30612.2	30734.8	30773.8	30663.4	30682.1	30712.3	30712.3
605.84	52890.2	1043.18	31885.1	31279.5	30988.8	30916.7	30893.2	30935	30845	30845.1	30741.8	30753.7	30654.1	30883.4	30644.2	30720.1	30732.9	30635.4	30635.4
606.077	52871.3	1040.88	31847.1	31092.9	31095.1	30885.5	30910.2	30957	30765.9	30790.6	30900	30764.2	30833.3	30812.7	30651.7	30748.3	30669.6	30675.1	30675.1
606.314	52726.3	1034.92	31708.7	31048.4	30890.6	30677.4	30668.3	30719.7	30678.5	30778.6	30689	30523.4	30539.6	30601.3	30480.8	30555.3	30461.1	30502.3	30502.3
606.55	52451.2	1036.92	31649.1	30933.4	30749.1	30619.9	30592.6	30509.3	30450.3	30405.8	30484.5	30429.1	30378.9	30414.6	30329.5	30388.2	30363.1	30375.9	30375.9
606.787	52539	1041.7	31569.4	30840	30640.7	30547.8	30416.9	30477.1	30465.1	30349.7	30348.2	30378.9	30478.8	30245.8	30453.6	30322.8	30348.2	30212.7	30212.7
607.024	52127.1	1045.18	31301.3	30577	30425.2	30336.2	30358.5	30294.1	30139	30180.2	30187	30042.2	30133.7	30026.4	30014.3	30049.9	30135.5	30056	30056
607.261	52442.3	1038.9	31502.1	30864.6	30630.9	30492.1	30511.9	30499.1	30396.5	30511.7	30440.1	30382.5	30357	30371.2	30316	30309.3	30380.4	30247.9	30247.9
607.497	51833.8	1046.04	31109.7	30569.9	30376.6	30219.1	30234.8	30191	30121.4	30061.3	30099.3	30065.2	29967.8	30053.6	29973.4	30028.2	29980.5	29969.8	29969.8
607.734	51895.5	1039.42	31223.3	30669.4	30499.9	30389.7	30322.5	30367	30228.9	30286.6	30138.9	30155.2	30140.9	30185.3	30149.7	30055.4	30099.9	30133.1	30133.1
607.971	51579.1	1036.92	31090.4	30464.4	30270.2	30278.3	30236	30242.2	30148.7	30146.6	30124.8	30110.2	29952.5	30122	30062.4	30125.8	29934.9	29994.7	29994.7
608.207	51556.7	1033.46	31037.6	30403.1	30165.9	30142.4	30239.8	30077.1	30222.9	30229.3	30144.6	30121.6	30119.6	30033.3	30096.6	30080.7	30017.2	29984.8	29984.8
608.443	51133.6	1033.7	30888.5	30209.1	30173.8	29880.8	30018.5	29936.2	29941.6	29887.2	29880.6	29811.3	29845.8	29943.1	29828.9	29776.8	29882.4	29767.8	29767.8
608.68	51036.4	1037.18	30796	30283.2	30013.9	29929	29925.7	30028.1	29835.7	29908.7	29789.9	29736.2	29744.7	29771.1	29722.7	29837.4	29715.2	29727.5	29727.5
608.916	50958.1	1035.64	30721.2	30190.2	30003.6	29890.9	29863.1	29958.9	29801.1	29858.8	29898.6	29713.5	29651.8	29689.7	29739.2	29729.4	29730.5	29679.1	29679.1
609.153	51157	1042.12	30739.7	30201.8	29955.7	29973.4	29851	29916.2	29793.1	29898.3	29829.7	29791.5	29749.7	29916	29693.8	29746.2	29588.5	29770.1	29770.1
609.389	50645.8	1036.52	30446	29925.7	29734.5	29711	29647.3	29681.2	29633.7	29664.6	29477.8	29580.7	29555.2	29586.1	29476.9	29518.1	29512	29392.9	29392.9
609.625	50453.8	1043.06	30379.6	29818.8	29651.4	29464.9	29610.4	29474.4	29518.9	29324.5	29412.3	29422.6	29437.1	29292.4	29406.9	29312.3	29355.6	29198.6	29198.6
609.861	50501.2	1034.92	30482.1	29886.7	29661.1	29585	29560.8	29659.6	29466.9	29343.9	29443.7	29446.1	29497.8	29291.2	29410.5	29358.4	29231.2	29359.1	29359.1
610.097	50176.3	1044.08	30299.3	29601.7	29479.9	29391.1	29289.2	29228.7	29308.9	29247.7	29308.9	29226.2	29120.2	29131.4	29190.8	29181.5	29108.5	29185	29185
610.333	50189.8	1039.5	30115.3	29539.9	29277.3	29220.4	29135.4	29247.5	29102.3	29137.1	29194.6	29010.6	29083.2	29133.7	29034	28978.4	29132.6	29142	29142
610.569	50055.2	1036.08	30098.3	29488.6	29336.2	29225.4	29133	29236.6	29040	29089.4	29088.2	29110.2	29267.3	28997.2	29018.9	29031.3	29011.6	29073.3	29073.3
610.805	49745	1038.8	29850.1	29248.7	29139.5	28993.9	29138.3	29055	29030.3	28920.6	28836.9	29089.9	28905.5	28888.7	28954	28892.7	28897.1	28833.9	28833.9
611.041	49607	1035.66	29825.8	29123.4	29025.7	29069.7	28956.7	28919.9	28886.5	28874.7	28897.9	28854.2	28978.2	28889	28969.5	28767.9	28804.4	28703.1	28703.1
611.277	49611.7	1044.8	29750.3	29161	28936.3	28988.3	28956.8	28818	28791.9	28776.8	28754.9	28845.8	28787.6	28843.1	28745.8	28786.7	28767.8	28694.6	28694.6
611.512	49250.6	1035.8	29524.8	28895.9	28872.2	28753.6	28575.5	28640.7	28634.1	28666.1	28571.5	28647.1	28634.2	28467.4	28550.6	28530.7	28522	28551.4	28551.4
611.748	49265.4	1042.28	29450.5	28801.8	28666	28634.4	28637.1	28599.2	28589.6	28496.5	28609.3	28654.9	28656.8	28500.3	28482.9	28413.1	28484.2	28444.9	28444.9
611.984	48887.5	1038.02	29253.3	28679.5	28576.5	28382.6	28522.7	28494.1	28436.8	28409.1	28384.5	28370.4	28325.1	28394.2	28374.7	28378.2	28336.3	28342.6	28342.6
612.219	48926.3	1038.6	29312	28720.1	28778.4	28452.7	28544.9	28400.1	28419	28413.8	28333	28364.9	28359	28217	28341.5	28498.8	28352.7	28295.6	28295.6
612.455	48398.4	1040.98	29031.5	28379.3	28348.1	28239.1	28204.5	28258	28239.4	28089.4	28257.2	28022.7	28154.1	28146.5	28118	28102.5	28066.2	27960.2	27960.2
612.69	48310.9	1040.7	29013.4	28474.4	28394.6	28186.9	28263.5	28081.9	28193.5	28176.6	28138.2	28155.9	28142.6	28005.2	28078.1	28128.4	28057.6	28159.6	28159.6
612.926	48344.6	1042.42	29070.2	28417.1	28433.8	28193.2	28303.4	28260.9	28202.9	28178.3	28213.8	28287.4	28118.4	28128.1	28163.8	28079.1	28062.2	28028.9	28028.9
613.161	47799	1028.08	28620.7	28104.3	28097.5	27961.3	27826.6	27871.8	27880	27771.5	27897.5	27789	27911.5	27778.5	27798.9	27675.8	27757.1	27788.2	27788.2
613.397	48001.5	1037.54	28792.7	28158.7	28165.1	28099.9	28008.1	27976.1	27975.7	27891.9	27909.8	27987.1	27861.7	27797.6	27834.6	27864.3	27835.3	27689	27689
613.632	47569.4	1039.54	28513.3	27958.7	27843.2	27794.1	27849.7	27833.2	27704.7	27773.6	27716.1	27661.7	27791.2	27642	27609.6	27540.4	27582.1	27554.9	27554.9
613.867	47444.2	1042.88	28352.7	27925.6	27808.9	27704.4	27666.6	27727.2	27598.9	27599.7	27650.7	27479	27512.7	27585.8	27524	27444.4	27573.2	27524.4	27524.4
614.102	47215.2	1035.92	28231.9	27828.4	27672.9	27654.6	27513.1	27643.7	27497.4	27538.2	27350.2	27463.2	27415.8	27552.6	27391	27396.8	27471.7	27395.3	27395.3
614.337	46914.6	1042.38	28113.4	27621.5	27488.4	27370.8	27406.2	27286.8	27403.8	27310.5	27262.9	27238.8	27336.4	27329.8	27180	27229.8	27309.7	27139.6	27139.6
614.572	46566.4	1045.36	27888	27444	27244.2	27229.4	27127.1	27185.8	27092.6	27118.4	27038.3	27111.6	27045.3	26996.9	26925.1	27089.8	27004.3	27010.7	27010.7
614.808	46578	1043.66	27804.3	27258.1	27165.4	27163.3	27175.3	27066.8	27103.3	26998.8	26972.9	26948.2	26981	27046.8	27061.9	26987.8	27019.2	26829.6	26829.6
615.042	46258.7	1036.96	27701	27172.5	27095.1	27011	26983.8	27082.7	26941.7	26837	26909.3	26851.2	26828.4	26902.4	26873.5	26824	26833.1	26868	26868
615.277	46079.4	1043.92	27491.5	27049.4	26932.6	26900.2	26828.6	26710.9	26661.4	26769.6	26769.9	26705	26683.9	26775.6	26605.2	26716.1	26765.3	26657.4	26657.4
615.512	46114.9	1042.26	27501.8	26977.3	26993.2	26813.2	26825.4	26760.7	26789.4	26764.2	26755.6	26689	26738.5	26734.3	26662.3	26633.3	26710.2	26642.2	26642.2
615.747	45529.6	1033.64	27122.6	26683.1	26657.4	26556.3	26606.2	26517.6	26557.1	26414.9	26477.1	26440.1	26486.7	26531.4	26343.8	26337.2	26505.8	26379.5	26379.5
615.982	45585	1042.5	27137.8	26886	26707	26717.5	26532.1	26547.4	26474.6	26490.6	26503	26465.6	26464.2	26479.2	26493.8	26376.1	26471.2	26326.2	26326.2
616.216	45404.7	1038.96	27116.9	26799	26524.7	26482.1	26526.8	26552.3	26470.6	26521	26552	26476.2	26419.2	26436.9	26427.8	26433.5	26287	26334.9	26334.9
616.451	45093.4	1038.78	26934.4	26481.4	26417.6	26328.2	26320	26254.2	26221.4	26207.8	26189.2	26182.9	26090.1	26148.4	26169.4	26069.2	26104.9	26129.1	26129.1
616.686	44743.4	1040.2	26753.5	26289.8	26145.4	26122.6	25927.8	26007.1	26062.7	25960	25879	25910	25877.2	25944.8	25910.1	25931.8	25857	25764.5	25764.5
616.92	44641.2	1039.32	26637	26178.2	26064.8	26071.8	25968.9	25908.2	26070.9	25874.3	26042.5	25866.4	25938.1	25984.8	25755.4	25892	25798.9	25798.4	25798.4
617.155	44460.3	1040.04	26499	26058.7	25940.7	25947.3	25804.8	25771.4	25891.5	25838.3	25929	25812	25844.2	25822.1	25800.9	25714.7	25669.4	25752.6	25752.6
617.389	44278	1034.24	26380.6	25864.8	25846.8	25897.6	25705.7	25675.1	25688.7	25773.4	25797	25608.6	25685.9	25660.7	25577.7	25738.5	25564.2	25622.6	25622.6
617.624	43965.2	1042.88	26121.1	25715.4	25703.1	25649.3	25552.1	25500.3	25477	25543.3	25446.5	25512.4	25530.1	25460.3	25339.4	25471.5	25534.7	25455.7	25455.7
617.858	43889.5	1036.86	26222.7	25881.4	25683.7	25661.9	25630.1	25572.9	25604.3	25533.5	25535.1	25500.5	25449.8	25553	25473.3	25395.5	25411	25385.8	25385.8
618.092	43579.1	1037.94	26084.2	25622.1	25512.5	25482.4	25405.3	25444	25385.5	25338.5	25376.9	25274.2	25410.7	25202.5	25304.7	25192.5	25132.8	25178.2	25178.2
618.326	43383.6	1039.22	25907.4	25670.6	25371.7	25413.7	25374.7	25262.8	25358.3	25231.1	25248.7	25163.8	25225.4	25144.2	25295.5	25166	25221.8	25081.7	25081.7
618.561	43225.4	1032.44	25820.5	25457.5	25417.4	25276.9	25233.7	25103.4	25130.5	25129	25054	25106.9	25105.4	25019.4	25279.4	25159.8	25140.8	25065.2	25065.2
618.795	42872.6	1037.42	25682.7	25229.2	25185.2	25143.8	25037.5	25036	25011.2	24955.4	24953	24955.9	24951.2	24962.3	24969.8	24865.2	24985.6	24865.2	24865.2
619.029	42716.4	1042.14	25601.4	25270.4	25176.2	25100	25107.7	25047.3	25074.6	25063.6	24992.2	24967.1	24924.1	24870.8	24815.3	24892	24925.3	24796.4	24796.4
619.263	42527.4	1037.44	25401.5	25077.8	24964	24831.8	24892.5	24824.1	24813.7	24828.8	24897.4	24866.7	24885.8	24779.5	24737.7	24871.6	24798.6	24730.5	24730.5
619.497	42313.9	1041.82	25300.3	25007	24865.9	24802.5	24848	24820.6	24853.4	24647.7	24726.3	24674.2	24732.5	24656.6	24578.4	24623.6	24692	24667.8	24667.8
619.731	42233.2	1044	25251.1	24860.9	24650.8	24714.6	24734.8	24639.8	24653.8	24497.6	24550.6	24534.7	24517.9	24541.9	24585.5	24503.1	24529.9	24557.4	24557.4
619.964	42071.9	1044.66	25172.5	24711.5	24756.1	24499.6	24640.5	24553.8	24577	24554.2	24557.9	24455	24480.5	24475.1	24487	24430.8	24436.5	24448	24448
620.198	41945.4	1039.08	25074.3	24620.4	24724	24470.2	24505	24522.6	24493.2	24538.8	24460	24500.2	24433.2	24479.9	24284.8	24403.1	24292.8	24437.3	24437.3
620.432	41581.6	1031.18	24864.2	24495	24432.4	24257	24361.8	24195.8	24335.4	24322.1	24263.6	24275.3	24275.3	24325	24258.1	24157.5	24075.4	24225	24225
620.666	41314.7	1039.04	24725.8	24330.6	24237.5	24097.2	24117.3	24146.3	24186.9	24155.6	24113.3	24112.5	24101.4	23995.5	24138.5	24033.9	24078.5	24094.7	24094.7
620.899	41196.8	1030.72	24740	24337.7	24212.3	24187.1	24172.1	24175.2	24086.1	24051.1	24009.4	24076	23964.5	24051.8	24130.9	24017.1	23905.7	24055.6	24055.6
621.133	41103.3	1032.6	24576.1	24136.7	24137.5	24002.2	24077.9	23929.8	23841.1	23906.7	23922.7	23934.8	23755.3	23754.1	23851.5	23849.5	23858.9	23655.6	23655.6
621.366	40933.7	1034.74	24438.2	24090	23990.4	23895.6	23882.7	23767.3	23888.8	23777.1	23844	23883.4	23759.5	23726.7	23762.8	23752.9	23777.1	23740.1	23740.1
621.6	40753.2	1046.98	24358.1	23902.3	23878.9	23701.6	23758.5	23705.9	23839.3	23672.8	23690.8	23723.5	23692.8	23720	23751.7	23642.7	23608	23704	23704
621.833	40573.2	1034.42	24215.8	23923.2	23844.3	23695	23649	23620.5	23640.8	23584.6	23578.2	23675	23685.6	23541.9	23523.6	23515.8	23620.9	23620.1	23620.1
622.067	40227.4	1033	24052.5	23772.7	23599.9	23516.5	23542.3	23481.3	23461.2	23506.5	23506.9	23531	23384.8	23528.5	23340.3	23426.9	23503.1	23503.7	23503.7
622.3	40143.8	1035.5	23908.6	23657.9	23504.8	23426.8	23457.5	23350.1	23428.1	23412	23385.5	23375.3	23401	23330.7	23294.3	23312	23313.5	23350.3	23350.3
622.533	40090.3	1036.78	23868.3	23502.6	23411.1	23503.5	23427.1	23197.7	23344.2	23375.4	23307	23219.5	23233.9	23339.7	23275.9	23370.4	23313.3	23232.1	23232.1
622.766	40056.6	1033.62	23898.1	23508.9	23402.7	23369.4	23389.3	23417.4	23233	23297.2	23232.5	23335.2	23420.4	23313.1	23286.4	23161.2	23248.8	23241.6	23241.6
623	39700.1	1042.32	23724.1	23304.2	23268.7	23116.1	23110.2	23176.4	23059	23200.8	23006.3	22936.3	23089.1	23030.3	23115.7	23050.4	23042.2	22965.3	22965.3
623.233	39479.6	1029.46	23579.4	23293.8	23100	23032	22955	22937.6	22980.6	22756.2	22882.4	22900.2	22879.4	22849.3	22858.7	22861.2	22910	22820	22820
623.466	39332.2	1030.68	23415.4	23059.9	23059.8	22871.2	22912.3	22856	22928.3	22755.2	22795.3	22833.6	22813	22820.6	22696.9	22837.7	22803.1	22751.5	22751.5
623.699	39246.6	1036.44	23438.7	23172.2	23064.4	22948.7	22917.7	22816.3	22755.3	22770.4	22887.5	22773.2	22836.9	22838.5	22867	22825.1	22701	22712.1	22712.1
623.932	39087.6	1046.76	23366.3	23021.4	22869.6	22812.9	22998.9	22876.9	22817.9	22780.5	22778.5	22778.7	22810.7	22778.3	22747.2	22671.5	22673.4	22735.9	22735.9
624.165	39018.3	1034.21	23228.3	22955.7	22758.6	22687.3	22701.3	22830.2	22704.8	22607.7	22662.7	22682.3	22662.8	22619.8	22614.3	22634.7	22557.5	22546	22546
624.397	38500.5	1039.3	23000.4	22635.1	22435.5	22521.5	22474.9	22508.7	22423.5	22378.9	22387.1	22398	22335.7	22363.9	22317	22353.6	22295	22411.5	22411.5
624.63	38696.5	1031.46	22981.6	22731.3	22684.3	22559.1	22483.1	22545.7	22632.1	22517.3	22558.9	22567.2	22487.6	22416.2	22440.3	22469.3	22326.7	22490.6	22490.6
624.863	38536.5	1036.84	22856.4	22683.1	22582.2	22425.9	22370.8	22443.3	22534.6	22336.3	22337.8	22431.5	22342	22351	22341.3	22301	22327.1	22304.5	22304.5
625.096	38222.6	1046.28	22828.8	22505.6	22466	22296.6	22313.4	22352.7	22246	22268.4	22201.4	22264.4	22230.4	22277.1	22253.2	22177.4	22189.1	22083.6	22083.6
625.328	38037.9	1029.22	22761	22455.5	22317.6	22333.2	22271.4	22301.2	22221.1	22122.9	22153.5	22188.9	22175.3	22173.9	22226.5	22121.4	22102.1	22054.7	22054.7
625.561	37685.6	1032.7	22543	22199.4	22037.8	22002.6	22038.9	21989.9	21950	21934.5	21920.4	22012.7	21852.7	21928.3	21952.2	21926.3	21860	21841.7	21841.7
625.793	37762.7	1039.52	22546.1	22212.9	22120.5	22083.1	22042.6	21986.1	21988.7	22011.9	21931.7	21987.8	21975.8	21936.9	21963.7	22015.7	21885.2	21784.6	21784.6
626.026	37477.1	1040.08	22336.6	21915.5	21902.1	21870.3	21968.4	21769.2	21783	21825.8	21737	21780.6	21791.4	21736.1	21744.3	21765.8	21733.2	21847.3	21847.3
626.258	37481.9	1040.84	22381.3	21962.3	22015.5	21994.5	21922.1	21857.2	21930	21870.3	21829.3	21855.3	21929.7	21866.6	21789.8	21806.3	21828.7	21862.2	21862.2
626.49	37486.8	1045.16	22312.6	22001.7	21974.7	21954.2	21906.2	21888.6	21858.2	21905.9	21806.5	21769.2	21808.7	21732	21849.8	21833.7	21783	21782.3	21782.3
626.723	36998.7	1046.42	21966.1	21716.6	21706.8	21607.2	21651.7	21648.1	21541.5	21589.7	21546.9	21428	21613.5	21449.7	21530.7	21553.3	21513.7	21549.5	21549.5
626.955	37044.1	1028.88	22016.7	21778.7	21726.3	21669.9	21765.5	21595.7	21589.9	21576.3	21571.1	21493.4	21522.7	21512.7	21596.5	21511	21550.1	21634.9	21634.9
627.187	36775.5	1030.1	21926.5	21678.5	21494.8	21463.9	21475.1	21559.6	21412.5	21383.6	21420.3	21443.5	21483.7	21409.4	21446.3	21479.6	21316.9	21431.7	21431.7
627.419	36622.3	1037.24	21816.6	21493.1	21304.9	21435.8	21386.7	21352.4	21425.3	21346.2	21429.2	21283.5	21366.6	21384	21232.3	21288.3	21274.6	21323.7	21323.7
627.651	36528	1037.88	21767.2	21485.3	21396.7	21395.9	21390.1	21397.7	21370.9	21321.9	21337.5	21263.3	21266.1	21260.3	21288.9	21166.5	21245.6	21380.7	21380.7
627.884	36238.8	1041.8	21530.1	21316.2	21294.1	21255.1	21106.1	21161.9	21124.5	21200.4	21196.5	21195.1	21167.5	21092.9	21090.1	21112.9	21106.5	21154.1	21154.1
628.115	36164	1036.92	21498.1	21300.1	21341.5	21226.6	21076.7	21147.2	21109.3	21100.2	21161.9	21059.3	21069.7	21109.3	20998.9	21066.3	21082.5	20919.7	20919.7
628.347	35979.4	1042.99	21499.1	21167.2	21018	21077.2	21021.2	20919	21088.1	21030.8	21010.8	20959.4	20966.6	20985.6	21093.6	20970.6	20912.4	20984.2	20984.2
628.579	35781.9	1046.44	21343.1	21098.8	20968.2	20909	20887.4	20868.8	20895.6	20825.6	20777	20886.4	20819.8	20802.6	20856.6	20810.6	20879.4	20772.4	20772.4
628.811	35582.4	1038.96	21235.3	20993.3	20889.1	20776.8	20878.2	20884.9	20839.6	20821.7	20782.6	20741.3	20795.5	20731.1	20739.7	20699.9	20800.9	20625.5	20625.5
629.043	35522.7	1037.46	21233.2	20985.5	20759.3	20754.2	20790.7	20727.1	20745.9	20643.3	20717.3	20664.5	20722.7	20696.5	20719.1	20688.3	20700.2	20649.5	20649.5
629.275	35448	1045.04	21144.9	20879.5	20889.1	20749.1	20619	20704.5	20722.8	20674.5	20661.1	20553.2	20698.3	20675.3	20619.5	20626.9	20634.7	20522.9	20522.9
629.506	35254	1042.08	21067.1	20747.8	20656.6	20638.4	20602	20526	20636.7	20508.2	20481.6	20517.8	20525.2	20445	20514.8	20456.5	20630.2	20501.2	20501.2
629.738	34995.1	1041.26	20871.5	20634.5	20589.9	20534	20547.3	20611.1	20438.5	20442.7	20444.7	20470.2	20339.5	20293.7	20443.9	20398.3	20409.7	20376.4	20376.4
629.969	35022.3	1036.98	20895.2	20702.3	20519.5	20553.3	20473.5	20637.5	20413.5	20473.1	20442.9	20432.1	20343.5	20308.3	20420.5	20405.9	20380.9	20445.3	20445.3
630.201	34601.3	1043.28	20760.9	20419.2	20460.6	20398.2	20318.6	20285	20353.3	20216.2	20359.2	20287.6	20275.4	20251	20245.5	20256.8	20092.2	20178	20178
630.432	34479.8	1038.12	20685.5	20289.3	20254.7	20310.3	20276.5	20261.7	20178.9	20316.9	20331.1	20225.2	20190.7	20076.3	20135.6	20071.2	20140.3	20120.9	20120.9
630.664	34493.7	1035.2	20685.2	20415.3	20350.8	20366.1	20346.1	20329.2	20347.8	20212.9	20282	20197.4	20176.2	20199.9	20317.1	20203.8	20227	20148.4	20148.4
630.895	34090	1042.08	20464	20181.2	20235.8	20077.2	20043.8	20025	20051.4	20048.2	19982.4	20058.2	20114	19970.7	19953.3	20043.6	20039.6	19952.4	19952.4
631.126	34203.7	1039.9	20538.9	20247.6	20275.4	20229.6	20152.8	20100.2	20114	20062.8	20049.1	20095.5	20010.9	20050.8	20018.8	20073.6	20070.2	20083	20083
631.358	34022	1035.44	20448.2	20143.8	20087	20059.4	20089.2	20127.8	19941	20069.8	20059.7	20036.2	19992.6	20039.4	19953.3	20005.6	19930.5	20032	20032
631.589	33897.6	1040.02	20335.5	20087.4	20116.7	20062.4	19922.4	19946	19901.2	19925.1	19956.6	19905.6	19837.6	19891.4	19828.6	19914.8	19919.8	19740	19740
631.82	33656	1037.04	20195.1	19951	19833.2	19833	19833.8	19847	19846	19737.1	19683.2	19822.2	19759.4	19812.2	19748.4	19761	19655.6	19729.6	19729.6
632.051	33576.7	1041.26	20127.9	19905.3	19859.1	19771.1	19787.7	19729.7	19750.1	19787.3	19657.7	19814.1	19669.7	19779.7	19696.9	19658.7	19645.9	19742.1	19742.1
632.282	33392.6	1041.52	20039.4	19805.3	19753.7	19669.1	19701.1	19594.9	19563.5	19608.5	19707.3	19630.9	19529.7	19599.9	19669.7	19595.4	19539.6	19626.6	19626.6
632.513	33144.5	1037.22	19932.4	19594.1	19623.1	19606.7	19550.9	19564.3	19466.5	19516.6	19498.1	19528.1	19552.9	19450.3	19399.7	19438.5	19447.3	19343.1	19343.1
632.744	33121.1	1048.96	19845.1	19651.8	19497.6	19670.4	19521.7	19491.8	19512.4	19465.6	19410.4	19504.4	19445.6	19486.6	19548.1	19467	19394.8	19429.2	19429.2
632.975	32917.1	1039	19814.5	19530.4	19514.9	19442.5	19534.1	19468.5	19301.5	19478.7	19451.9	19409.1	19422.1	19431.5	19374.9	19439.9	19339.3	19327.7	19327.7
633.206	32755.6	1039.14	19760.3	19443.3	19431.7	19539.7	19419.7	19482.7	19274.4	19322.1	19268.9	19400.7	19371.5	19317.3	19365.8	19282.5	19369.7	19263.5	19263.5
633.436	32663.9	1035	19740.6	19523.3	19376.7	19379.3	19299.1	19395.4	19233.9	19247.9	19185.9	19282.1	19262.5	19222.7	19269.9	19233.9	19326.1	19185.9	19185.9
633.667	32526.1	1034.72	19592.6	19313.4	19298.4	19276.2	19207.2	19226.4	19230.6	19120.9	19067	19173	19152	19154.8	19234.4	19119.6	19212.4	19147.4	19147.4
633.898	32210.2	1040.5	19506.4	19177.2	19154.1	19177.5	19135.5	19173.5	19088.5	19010.5	19033.7	19039.1	19037.4	19070.9	19123.7	19054.3	18972.3	19020.7	19020.7
634.128	32238	1028.96	19438.5	19185.7	19102.5	19094.5	19053.1	19080	19037.5	19087.7	18982.5	18936.5	18967.7	18944.3	18873.7	18939.7	18972.4	18957.4	18957.4
634.359	32023.8	1042.32	19281.2	19093.6	18938.6	18951	18941.2	18952.8	18974.2	18857.4	18894.6	18872.6	18976.5	18769.2	18834	18830	18827.8	18816	18816
634.589	32126.4	1034.5	19290.1	19141.2	19090.3	19036	18964.2	18982.1	18951.5	18931.7	19044	18971.9	19015.9	18895.3	18947.5	18896.7	18947.9	18996.1	18996.1
634.82	31841.2	1038.22	19158.7	18976.6	18894	18927.2	18875	18895.9	18979.4	18805.7	18851.1	18909.2	18731.4	18907.8	18776.8	18794.8	18811.4	18746.2	18746.2
635.05	31820.1	1038.36	19107.4	19006.5	18901.5	18963.3	18799.8	18808.5	18820.9	18725.5	18823.9	18863.1	18743.8	18728.3	18714.1	18692.3	18729.7	18784.7	18784.7
635.281	31443.9	1039.44	18904.8	18707.9	18688.8	18707	18665.2	18488	18566.4	18522.2	18534	18533.7	18533.2	18612	18468.6	18519.6	18481.6	18481	18481
635.511	31474.9	1038.58	18897.2	18682	18657.8	18629.6	18505	18503.6	18591	18556	18582	18545.6	18506.6	18438.2	18371.3	18435	18542.6	18498.2	18498.2
635.741	31313	1041.06	18867.4	18602.5	18528.1	18660	18434.1	18470.1	18471.5	18518.5	18432	18421.3	18565.7	18489.3	18458.7	18399.5	18494.7	18453.6	18453.6
635.971	31123.1	1032.24	18722.2	18511.6	18486.9	18480.6	18481.7	18357.1	18390.1	18353.7	18404.3	18410.7	18350.7	18321.1	18347.3	18260.3	18401.9	18349.7	18349.7
636.201	30925.9	1037.22	18586.6	18554	18492.6	18315.6	18289.6	18292.6	18278	18331.4	18375.4	18209	18311.2	18224.7	18243.8	18254.2	18220.4	18218.4	18218.4
636.432	30976	1034.16	18667.8	18415	18351	18411.4	18300.8	18196.4	18276.2	18199	18219.6	18265.2	18303.2	18251.8	18253.9	18230.4	18272	18123.5	18123.5
636.662	30710.8	1044.24	18508.2	18305.7	18260.9	18105.9	18221.1	18243.6	18165.7	18185.1	18166.1	18186.1	18167.7	18094.2	18179.3	18150.7	17949.9	18136.9	18136.9
636.891	30475	1043.71	18399.3	18219.5	18209.2	18180	18134.2	18112.1	18109.8	18106.8	18037.8	18075.8	18007.4	18084.2	18043.4	17931.8	18054.4	18054.4	18054.4
637.121	30550.2	1048.56	18529.2	18352.8	18195.4	18153.6	18142.2	18176.6	18113.4	18160.4	18133.6	18186.8	18110.8	18134.5	18149	18130.7	18044.8	18054.8	18054.8
637.351	30157.7	1045.48	18264.3	18044.6	17999	17965.6	17905	17979	17929.6	17969.2	17955.2	17916.4	17921.8	17768	17896.4	17847.2	17857.8	17856.1	17856.1
637.581	30040.9	1033.92	18179	17911.1	17882.1	17885.1	17833.7	17823.2	17798.2	17802.9	17813.3	17785.3	17738.3	17832.1	17838.1	17736.9	17770.3	17779.7	17779.7
637.811	30071.6	1037.72	18176.5	17975.8	17837.6	17878.6	17887.8	17859.8	17799.4	17824.2	17793.6	17753.8	17779	17811	17767.4	17779.8	17778	17742.4	17742.4
638.041	29652.7	1037.54	17930.5	17683.5	17676.3	17593.9	17515.3	17626.9	17584	17603.9	17498.9	17504.7	17555.9	17508.1	17597.1	17459.9	17519.3	17426.1	17426.1
638.27	29749.7	1037.46	18006.7	17811.7	17791.1	17615.4	17673.3	17619.5	17698.9	17593.5	17668.3	17592.5	17682.5	17647.9	17624.7	17562.1	17619.3	17551.1	17551.1
638.5	29512.5	1038.04	17896.8	17729.9	17520.9	17541.5	17523.6	17417.1	17502.7	17552.5	17457.3	17487.9	17435.9	17445.5	17518.1	17468.1	17465.7	17533.1	17533.1
638.729	29430.3	1034.71	17767.4	17592.6	17440.2	17472	17476	17489.4	17404.2	17521	17416.4	17406.8	17488.4	17339.2	17358.2	17342	17361.2	17318.4	17318.4
638.959	29278.7	1036.36	17699	17533	17491.2	17511.7	17575.9	17485.8	17450	17444.8	17368.4	17488.8	17466.8	17393.8	17505	17379.4	17318.2	17322.2	17322.2
639.188	29061.5	1044.24	17660.1	17483.8	17467.4	17439.8	17324.6	17360.9	17370.8	17332	17302.2	17379	17310	17355.6	17290.2	17201.6	17215.4	17289.4	17289.4
639.418	28983.5	1043.58	17547.7	17398.4	17430.8	17323.4	17365.2	17255.4	17296.4	17232.2	17346.4	17319.8	17149.8	17263.4	17231.2	17260.4	17220.2	17261.4	17261.4
639.647	28847	1034.6	17506.4	17340.4	17167	17309.2	17135	17234.4	17207.8	17092	17187.4	17226.8	17197.4	17122.4	17163.2	17129	17171.6	17061.6	17061.6
639.876	28597.3	1034.66	17384.9	17146.1	17159.1	17161.5	17108.6	17033.3	17068.5	16994.3	17053.1	16980.5	16982.3	16977.9	17017.5	16966.1	17031.3	17016.5	17016.5
640.105	28560.3	1039.62	17373	17157.3	17117.1	17072.7	16997.1	16956.1	17048.9	16973.9	16998.9	16959	17038.3	16938.4	16988.7	16973.9	16988.5	16947.7	16947.7
640.335	28452.7	1037.14	17271.4	17138.2	16999.1	17055	17027.2	17045.8	17061.7	17070.6	16979.8	16910.2	16896	16864.2	16970.6	16932.8	16961.6	16969	16969
640.564	28276	1042.7	17172.1	17038.3	16903.5	16929.5	16913.1	16832.5	16881.3	16973.1	16848.1	16798.9	16922	16774.5	16859.5	16842.7	16874.7	16902.3	16902.3
640.793	28238.6	1038.6	17122.5	16937.1	16955.2	16775.8	16775.6	16764.8	16831.2	16823	16666.8	16786.9	16768.8	16887.2	16652	16818.8	16745.4	16755.6	16755.6
641.022	27961.3	1050.58	16985.2	16748.8	16707.6	16657.8	16679	16656.6	16721.6	16573.6	16566.6	16653	16693.2	16681.6	16590.4	16618.2	16595.6	16622.4	16622.4
641.251	27943.2	1035.34	16988.3	16749.9	16692.7	16741.1	16674.3	16705.1	16566.5	16667.3	16654.7	16613.3	16685.7	16678.7	16565.2	16676.1	16625.9	16641.9	16641.9
641.48	27841.8	1040.94	16897.2	16774.2	16653.4	16651.6	16593.2	16539.2	16466.2	16587.4	16655.2	16562.8	16680.4	16469.8	16513.4	16595.2	16547.1	16576	16576
641.708	27578.8	1046.94	16699.9	16547.6	16509.4	16445.8	16455.8	16450.2	16493.4	16410.2	16452.4	16383.6	16468.8	16439.8	16346	16490.8	16378	16396.6	16396.6
641.937	27558.6	1040.5	16779.8	16511.1	16545.9	16410.5	16483.3	16301.7	16455.3	16408.1	16378.5	16356.5	16397.7	16345.9	16385.7	16321.9	16352.9	16360.4	16360.4
642.166	27259.4	1041.46	16554.5	16340.6	16289.4	16174.4	16256.2	16288	16206.6	16262.2	16195	16153.2	16172.6	16205.6	16137	16215.4	16193.2	16166.8	16166.8
642.395	27333.1	1035.72	16548	16304.8	16377.8	16245.2	16260.8	16276.8	16229.6	16157.2	16257	16227.2	16142.2	16119	16226.2	16235.2	16132.6	16078.6	16078.6
642.623	27021.3	1034.4	16430.5	16232.7	16247	16176.3	16107.1	16118.5	16093.5	16081.1	16072.3	16052.3	16042.9	16057.3	15939.7	16055.1	15972.7	16090.9	16090.9
642.852	26924.1	1034.7	16243.4	16030.8	16093	16054	15921.4	15997	15991.8	16089.2	16017	16003	16079.4	15901	15980.4	16029.2	15943	15963	15963
643.08	26961.8	1035.26	16283.2	16093.4	16137.4	15963.4	16004.2	16011.2	15949.8	15933.6	16003.4	15969	16047.8	15911.6	15939.8	15955.6	16062.8	15931.6	15931.6
643.309	26746.1	1039	16161.9	16083.5	16032.7	15988.9	15939.3	15948.3	15915.1	15919.1	15838.3	15851.9	15947.1	15916.1	15902.1	15827.9	15842.9	15806.1	15806.1
643.537	26576.3	1037.74	16054.1	15882.1	15856.5	15758.7	15820.1	15862.9	15730.9	15846.9	15772.3	15700.3	15814.3	15810.9	15788.7	15818.9	15642.7	15776.1	15776.1
643.766	26581.6	1043.9	16039	15945	15895.8	15809.8	15821.8	15853	15729.4	15721.6	15825	15764.4	15766	15783.8	15693.4	15731.6	15693.8	15763.2	15763.2
643.994	26197.5	1034.82	15894.8	15710.2	15591.6	15570.2	15643.6	15590	15662.8	15560.6	15581.4	15578.8	15584.8	15582	15538.6	15605.6	15488.6	15513	15513
644.222	26038.4	1038.2	15801.9	15593.3	15547.3	15616	15632.9	15445.5	15549.9	15581.9	15511.9	15545.5	15471.7	15541.5	15483.9	15540.5	15525.7	15464.9	15464.9
644.45	26121.3	1035.54	15795.5	15614.5	15612.3	15523.7	15616.3	15606.3	15587.3	15620.7	15563.9	15512.1	15528.5	15524.7	15491.7	15496.5	15504.1	15493.3	15493.3
644.679	25887.4	1032.86	15668.6	15473.3	15438.3	15412.3	15496.5	15419.9	15466.3	15359.7	15405.5	15377.7	15326.5	15208.3	15287.7	15398.9	15456.1	15368.3	15368.3
644.907	25657.7	1032.8	15439.6	15370.8	15214.6	15296.4	15277	15236.2	15215	15193.6	15248.6	15191.6	15221.2	15197.4	15194.6	15206.8	15184.2	15164.6	15164.6
645.135	25601.5	1039.08	15464.5	15358.3	15263.3	15262.5	15202.9	15220.3	15186.7	15210.1	15246.5	15127.7	15261.5	15153.1	15267.7	15260.1	15151.3	15193.5	15193.5
645.363	25419.8	1036.96	15330.5	15315.9	15195.9	15257.3	15172.1	15172.3	15103.5	15192.7	15173.3	15130.1	15005.9	15141.3	15081.5	15083.9	15133.1	15110.9	15110.9
645.591	25402.6	1036.78	15326	15239.2	15208	15167.6	15248.2	15115.2	15168.8	15178.2	15174.6	15068.8	15173	15169.2	15075.8	15123.8	15044	15086.6	15086.6
645.819	25222.5	1047.06	15337.4	15228.4	15145.4	15148.6	15124.8	15063.6	15126	15045.2	15060.4	15026.6	14975.4	15021.6	15046.6	15093	15000.6	15051.8	15051.8
646.046	25037.3	1038.34	15186.7	15032.7	15022.9	15048.7	14967.2	14925.1	14875.7	14942.5	14851.1	14916.7	14914.9	14919.1	14847.1	14917.3	14936.5	14845.3	14845.3
646.274	24925.6	1042.6	15080.3	14933.4	14926.4	14932.6	14921.8	14860.6	14820.4	14893.6	14855.8	14855	14873.6	14838.4	14747.6	14801.4	14766	14798.8	14798.8
646.502	24779.3	1043.44	15072.1	14936.9	14876.1	14872.9	14904.3	14851.7	14820.3	14863.3	14792.1	14801.3	14817.5	14855.7	14734.3	14738.3	14802.9	14691.7	14691.7
646.73	24613.2	1038.26	14997.6	14835.8	14879.8	14818.2	14786.6	14801.4	14746.2	14729.2	14766	14711.2	14703.8	14749.8	14729.2	14752	14589.4	14725.8	14725.8
646.957	24477.1	1037.3	14891.2	14705.8	14681.2	14628.2	14610.6	14690	14699	14697	14690.6	14539.6	14673.8	14582.8	14590.8	14622.4	14617.2	14573	14573
647.185	24484.9	1032.8	14909.6	14728.6	14647	14659.2	14642.4	14676.4	14639.2	14651	14596.4	14565.2	14609.4	14600.6	14651	14549.6	14538.8	14646	14646
647.412	24297.8	1027.44	14802.7	14590	14573.8	14544.6	14470.6	14525.6	14502.4	14419.6	14397.2	14498.6	14455.6	14551	14480.4	14435	14415.6	14439.4	14439.4
647.64	24188.7	1040.74	14669.5	14502.8	14484.6	14454.6	14456	14487	14510.6	14487.2	14495.4	14419	14504.8	14423	14444	14463.2	14443.6	14459.6	14459.6
647.867	23831	1033.78	14478	14308	14287.2	14294.2	14284.6	14217.8	14262.4	14207.2	14258.4	14209.8	14183.2	14299.2	14201.6	14201.8	14183.8	14175.4	14175.4
648.094	23986.6	1038.36	14483.1	14427.6	14319.8	14326.4	14368.4	14325.6	14456.8	14320.2	14277	14312	14293.8	14304.2	14263.2	14317.4	14369.4	14373.4	14373.4
648.322	23678.1	1035.86	14441.2	14225	14241	14186.2	14171	14114.6	14166.2	14080.6	14182.1	14043.8	14091.6	14145.2	14108.4	14055.6	14275.4	14125	14125
648.549	23714.8	1042.44	14370.9	14277.3	14165.6	14221.4	14251.8	14229.4	14224.8	14160.4	14196	14181.6	14230.7	14183.6	14131	14101.1	14195	14169.8	14169.8
648.776	23442.7	1034.58	14285.3	14165.3	14199.1	14085.9	14011.3	14073.3	14144.3	14107.9	13986.4	14053.7	14122.9	14036.1	13987.9	14029.1	14052.7	14028.1	14028.1
649.003	23591	1036.5	14305.2	14253.7	14157.3	14113.5	14143.1	14070.9	14132.1	14080.9	14056.1	14058.8	14071.7	14040.3	14090.1	14061.1	14029.3	14163.3	14163.3
649.23	23427.9	1043.98	14193.6	14009.8	14001.4	13996.2	13988.4	13943.4	13985.4	13968.2	13932	13958.2	13922.6	13908.6	14026.4	13928.4	13953.4	13903	13903
649.457	23246.2	1039.06	14101.3	13974	13942.6	13874.6	13851.6	13944.2	13826.8	13878.4	13792.4	13967.8	13799.4	13822	13851.4	13871.8	13855.8	13764	13764
649.684	23046.4	1038.66	13930.7	13809.5	13778.7	13796.7	13844.9	13842.7	13813.7	13797.5	13833.5	13732.1	13818.9	13772.7	13751.1	13676.3	13814.7	13773.7	13773.7
649.911	22966.7	1034.98	13940.2	13861.7	13742.1	13821.5	13831.1	13853.3	13811.7	13747.1	13763.5	13775.7	13774.1	13722.5	13712.7	13706.5	13720.5	13646.9	13646.9
650.138	22664.5	1044.16	13735.9	13636.1	13638.9	13558.7	13615.9	13576.7	13579.1	13531.5	13684.9	13534.5	13548.9	13593.4	13537.7	13527.5	13480.8	13457.3	13457.3
650.365	22765.8	1039.6	13879.4	13836.4	13791	13686.8	13680	13622.2	13664.6	13602.4	13717.8	13618.6	13680	13674.4	13624	13686.4	13617	13673.8	13673.8
650.592	22492.7	1039.82	13680.4	13566.3	13573.3	13515.1	13427.1	13478.1	13496.5	13491.1	13500.7	13518.9	13539.7	13495.9	13446.5	13559.9	13486.1	13433.5	13433.5
650.819	22590.7	1044.4	13709.1	13673	13575.6	13613.4	13560.2	13532.2	13546	13511	13553.8	13482.8	13569.6	13528	13526.6	13426.2	13489.4	13489.2	13489.2
651.045	22379.7	1040.36	13588.4	13461.8	13375.4	13464.8	13438.8	13463.2	13352.2	13394.2	13377.8	13373.4	13328.4	13365.4	13283.4	13357.4	13381.2	13438	13438
651.272	22168.5	1040.34	13426.3	13330.5	13301.5	13366.9	13280.3	13307.7	13210.1	13195.4	13207.3	13201.5	13202.7	13165.1	13295.7	13178.7	13129.1	13190.3	13190.3
651.498	22167.7	1039.26	13371.6	13292.8	13253	13226.8	13330.1	13211	13228.8	13242.2	13193.6	13268.8	13203.6	13225.2	13184.6	13243	13093.6	13219.4	13219.4
651.725	22053.5	1038.34	13324.3	13218.9	13195.9	13213.9	13217.1	13147.9	13148.5	13219.7	13162.7	13141.1	13177.9	13118.5	13127.9	13110.9	13152.7	13181.1	13181.1
651.951	21820.5	1043.72	13265.2	13085.2	13176	13114.8	13132.4	13068.6	13122.4	13112.8	13123	13009.8	13053.6	13104.8	13059.2	13107	13067	13062.8	13062.8
652.178	21771.2	1037.58	13231.9	13167.8	13095.2	13076.2	13071.8	13085	13067.8	13070.8	13081.8	13025.8	13076.8	13052.6	13036.8	13101.2	13063.2	13084.6	13084.6
652.404	21604.3	1032.48	13135.7	13015.4	12998.2	13028.8	13002.4	12929.4	12976.4	12902.8	13005	12999.8	12944.6	12963.6	12911.8	12824	12969.2	12890.6	12890.6
652.63	21427.1	1046.72	13048	12970.4	12875.4	12890.6	12891.4	12936.8	12866.2	12806.8	12848.4	12836.4	12823.4	12840.8	12837.4	12826	12910.4	12855.4	12855.4
652.857	21300.9	1040.18	12985.1	12816.1	12860.5	12815.7	12785.9	12756.3	12820.9	12813.9	12773.7	12759.1	12757.7	12812.5	12749.7	12738.7	12760.1	12821.3	12821.3
653.083	21167.6	1044.04	12887.7	12848.3	12663.5	12684.3	12664.3	12676.5	12654.9	12660.5	12761.9	12646.3	12645.9	12609.5	12698	12606.9	12596.1	12679.3	12679.3
653.309	21054.8	1037.3	12853.1	12687.5	12754.3	12698.7	12644.1	12682.3	12648.3	12660.1	12574.1	12657.7	12612.1	12629.1	12650.1	12590.5	12563.3	12523.3	12523.3
653.535	20974.2	1040.56	12817.3	12683.9	12641.1	12697.3	12591.1	12567.1	12551.9	12590.3	12507.7	12544.3	12594.3	12558.7	12618.3	12528.9	12592.5	12449.3	12449.3
653.761	20785.7	1042	12743	12528.2	12580.4	12524.6	12513.8	12526.4	12476.8	12512.8	12506.6	12503.6	12552.8	12493	12530.8	12438.2	12528.8	12435.4	12435.4
653.987	20642	1039.82	12627.3	12562.6	12467	12448.4	12515.6	12405.6	12420	12473.4	12387	12415.2	12366	12367.2	12460	12355.8	12444.6	12361.6	12361.6
654.213	20615.2	1034.86	12641.4	12483.6	12497.4	12457.8	12416.8	12393.6	12449.4	12461.2	12394.2	12447.4	12431.2	12366.6	12434	12402.4	12339.6	12380.6	12380.6
654.439	20452.2	1042.76	12512.2	12419.6	12345	12381.6	12407.8	12335.4	12283.8	12328.2	12330.6	12350.8	12347	12301.6	12303	12299.8	12266.4	12298.6	12298.6
654.664	20253.1	1044.18	12362.1	12228.2	12248.6	12222.6	12202.8	12254.8	12183.8	12222.4	12206.4	12274.4	12240.4	12232.6	12240.4	12232.8	12248.8	12216.6	12216.6
654.89	20205.2	1036.69	12390	12190.9	12291.3	12265.9	12279.1	12213.5	12238.7	12211.9	12239.7	12228.7	12204.3	12189.7	12221.3	12137.3	12213.7	12168.9	12168.9
655.116	19999.9	1032.46	12234.8	12156.8	12164.2	12064.4	12140.8	12167.4	12155.4	12136.4	12035.2	11989.4	12051.4	12093.2	12083.8	12060	12031.4	12104.8	12104.8
655.342	19950.9	1035.3	12192	12066.5	12088.7	12101.7	12019.9	12064.1	12001.1	12045.7	12025.3	12065.3	12001.1	12027.1	12050.3	12002.9	11960.3	12055.3	12055.3
655.567	19763.2	1036.22	12078.4	11945.9	11924.1	12018.3	11991.1	11994.7	11901.9	11974.7	11978.9	11894.5	11892.7	11818.9	11876.9	11912.9	11893.5	11895.1	11895.1
655.793	19627	1041.3	12015.9	11933.7	11904.5	11897.5	11782.5	11859.3	11868.3	11912.3	11848.3	11866.3	11805.1	11774.1	11838.3	11754.1	11776.1	11827.3	11827.3
656.018	19463.1	1042.1	11919.6	11819.6	11853	11752.6	11739	11721	11757.8	11695.6	11721.8	11730.2	11732	11678.4	11706.6	11705	11737.4	11644.4	11644.4
656.244	19368.3	1039.7	11848.4	11706.8	11710	11652.8	11684.8	11541	11606.6	11639.4	11610.4	11632.4	11667.2	11616.6	11613.2	11552	11611.4	11672.4	11672.4
656.469	19193.5	1041.56	11728.5	11632.6	11548.6	11652.6	11593.4	11611.2	11643.2	11594.2	11656.2	11560.6	11604.4	11604	11559	11543.8	11623.2	11508.2	11508.2
656.694	19135	1035.7	11679.3	11610.4	11470.8	11611	11569.6	11500.6	11508.6	11616	11599	11534.4	11582.2	11562.4	11497.6	11490.2	11474	11550.8	11550.8
656.92	18995.9	1040.7	11665.3	11504.4	11490.8	11558.1	11498.1	11527	11478	11544.8	11507.8	11541.1	11507.4	11520.1	11428.4	11454.5	11452.1	11426	11426
657.145	18871.9	1043.8	11586.3	11464.7	11523.9	11436.3	11480.9	11419.7	11358.1	11478.3	11451.9	11426.5	11406.3	11441.9	11349.1	11370.3	11402.3	11365.1	11365.1
657.37	18798.5	1044.34	11568	11482.8	11435.6	11472.6	11454.8	11400.2	11351.2	11366.4	11397.2	11365.4	11420.2	11331.8	11358	11281.6	11397.4	11350.4	11350.4
657.595	18604.1	1037.94	11412.3	11354.7	11283.7	11341.5	11297.9	11240.1	11236.1	11337.1	11241.1	11278.5	11300.9	11193.3	11302.7	11285.9	11251.7	11303.9	11303.9
657.82	18563.5	1039.42	11408.7	11311.9	11228.7	11229.5	11264.3	11285.7	11205.7	11272.1	11168.1	11195.5	11250.7	11270.3	11271.9	11196.9	11207.9	11240.1	11240.1
658.045	18392.6	1040.6	11279.6	11230.8	11188.2	11140.4	11204.6	11194.2	11178.4	11044.8	11153.4	11175.8	11188.6	11125	11163.4	11149	11164.8	11135.2	11135.2
658.27	18340.8	1037.82	11251.1	11189.9	11182.7	11183.3	11130.7	11153.1	11098.7	11120.5	11102.5	11071.3	11065.9	11048.9	10957.1	11094.3	11046.1	11104.3	11104.3
658.495	18089.7	1036.74	11106.9	10989.2	10994.6	11030	11017.8	10931.4	10962	10923.6	11002.8	10980.6	10916	10941.6	10917.8	10893.6	11055.6	10896.2	10896.2
658.72	18043.5	1034.14	11111.5	11101.8	10960.4	10997.4	10976	10967	10905.6	10961.6	10945.8	10958.2	10969	10871	10986.6	10959.8	10942.4	10848.4	10848.4
658.945	17824.7	1038.7	10999.3	10954.1	10833.5	10807.5	10821.5	10848.9	10847.7	10776.5	10784.7	10908.7	10887.1	10787.7	10742.5	10841.9	10868.5	10772.3	10772.3
659.169	17766.2	1039.42	10920.3	10831.5	10804.3	10753.5	10776.1	10775.1	10773.3	10835.5	10711.9	10789.3	10788.1	10782.3	10721.9	10680.9	10750.1	10730.9	10730.9
659.394	17671.7	1039.72	10905.2	10801	10792.8	10755.6	10733.6	10718	10711.2	10690.6	10775.6	10696	10768.8	10670.2	10745.6	10700.8	10698.4	10713.6	10713.6
659.619	17597.4	1035.14	10789.6	10739.8	10725.6	10675.9	10693.2	10621.8	10673	10750.8	10660.6	10648.6	10683.2	10607	10602	10727.8	10618.4	10663	10663
659.843	17442	1049.74	10691.2	10644.8	10666.2	10660.8	10566	10494.4	10595.4	10620.8	10542.8	10616.4	10538.4	10536.8	10533	10499	10540	10507.8	10507.8
660.068	17208.3	1035.04	10599.4	10537	10458.8	10538	10459.2	10393.4	10379.4	10454.6	10430.8	10407.8	10379.6	10419	10372.6	10403.6	10486.2	10376	10376
660.292	17013.3	1035.6	10564.1	10465.1	10398.1	10429.7	10446.1	10350.9	10459.5	10384.1	10495.9	10429.7	10254.9	10321.9	10296.7	10343.5	10325.3	10378.3	10378.3
660.517	16986.2	1036.63	10519.5	10420.8	10309	10426.4	10345.2	10362.8	10365.8	10361.4	10312.6	10372.6	10334.6	10275.6	10415.2	10365.4	10295.4	10282.2	10282.2
660.741	16843.8	1043.2	10440.1	10362.1	10274.7	10297.9	10241.5	10284.5	10237.3	10217.3	10227.7	10230.7	10292.5	10232.7	10262.1	10279.3	10249.3	10194.1	10194.1
660.965	16800.1	1034.76	10411	10284.3	10226.3	10185.1	10288.9	10198.7	10194.3	10214.7	10214.3	10140.7	10269.1	10157.3	10205.7	10215.7	10285.3	10187.3	10187.3
661.19	16679.1	1038.32	10291.4	10213.3	10149.7	10123.9	10180.1	10099.9	10123.7	10206.5	10083.5	10086.9	10171.7	10154.7	10082.7	10153.7	10183.5	10116.1	10116.1
661.414	16494.2	1033.9	10203.7	10091.3	10053.9	10078.7	10026.3	10053.3	10103.5	9992.14	9995.94	10044.5	10094.7	10016.5	10094.7	10027.9	10044.9	10003.5	10003.5
661.638	16413.1	1049	10197	10070.5	10041.5	10070.5	9983.07	10062.9	10010.5	10019.7	10017.7	9979.47	9982.47	10053.5	10056.5	9985.87	9938.67	9932.07	9932.07
661.862	16282	1050.84	10087.6	9953.8	9902.6	9944	9874.2	9912.2	9898	9918.2	9887.8	9945	9943.6	9933	9977	9893	9909.6	9921	9921
662.086	16114.2	1045.94	10014.3	9972	9914.8	9876.2	9869.8	9905.4	9859.2	9845	9861.4	9813	9937.8	9868.4	9838.4	9874.4	9820.4	9876.4	9876.4
662.31	16094.3	1030.33	10018.6	9901.38	9858.58	9933.98	9806.18	9897.58	9847.78	9839.18	9780.38	9866.18	9859.38	9858.98	9795.38	9782.18	9831.78	9794.78	9794.78
662.534	16057	1040.33	9960.65	9854.32	9898.32	9847.72	9814.92	9793.72	9814.52	9844.92	9790.92	9759.12	9745.92	9781.12	9738.52	9729.72	9755.92	9751.52	9751.52
662.758	15886.4	1036.08	9842.35	9701.88	9696.28	9754.08	9655.68	9675.88	9707.28	9643.68	9705.88	9693.08	9665.68	9598.88	9741.08	9761.28	9689.88	9652.68	9652.68
662.982	15829.8	1040.58	9822.25	9792.78	9753.18	9673.98	9678.58	9604.78	9645.58	9653.78	9665.78	9593.78	9701.88	9611.78	9682.98	9621.78	9661.78	9652.78	9652.78
663.206	15745.8	1039.46	9792.73	9772.46	9625.46	9699.86	9608.06	9630.46	9629.86	9603.66	9717.06	9618.06	9645.26	9614.46	9721.86	9668.06	9658.06	9635.86	9635.86
663.429	15599.3	1039.84	9658.87	9611	9499.2	9566.4	9534.4	9506	9517	9516	9486	9588.2	9527.8	9513.8	9590.2	9432.6	9561	9554.4	9554.4
663.653	15454.7	1042.61	9618.15	9520.02	9461.02	9501.42	9536.42	9446.22	9400.82	9440.82	9443.42	9458.62	9475.62	9377.82	9460.62	9472.82	9408.02	9486.02	9486.02
663.877	15364.9	1031.32	9553.74	9520.41	9471.61	9467.81	9422.01	9416.61	9390.41	9490.21	9429.01	9424.01	9413.41	9377.81	9416.41	9468.81	9349.01	9393.21	9393.21
664.1	15215.9	1035.3	9407.45	9398.52	9394.52	9310.52	9302.52	9275.92	9325.92	9235.52	9253.92	9260.52	9346.52	9259.12	9246.12	9321.12	9275.72	9296.12	9296.12
664.324	15168.8	1034.36	9414.21	9325.28	9313.68	9288.88	9284.28	9356.88	9238.48	9224.28	9293.28	9340.88	9268.48	9279.68	9259.68	9233.68	9236.48	9247.68	9247.68
664.547	14980.7	1045.1	9313.62	9216.02	9272.42	9186.62	9156.42	9231.02	9146.82	9172.82	9201.82	9168.62	9121.82	9116.22	9223.42	9108.02	9173.02	9150.82	9150.82
664.771	14907.8	1047.06	9277.06	9225.33	9168.13	9179.93	9208.93	9149.73	9156.93	9093.73	9156.93	9145.93	9099.73	9167.73	9159.73	9095.93	9158.33	9141.93	9141.93
664.994	14830.7	1042.26	9260.59	9179.32	9186.32	9109.72	9121.72	9119.92	9176.32	9180.12	9135.72	9088.92	9124.32	9094.52	9148.92	9070.92	9143.12	9141.72	9141.72
665.217	14674.6	1040.88	9127.63	9073.3	9035.9	9027.5	9055.5	9028.3	9019.5	8992.7	8974.5	9066.1	8980.5	8993.9	8988.3	9006.7	8988.3	8943.7	8943.7
665.44	14520.7	1036.01	9065.25	9006.92	9016.92	8978.72	8943.52	8969.32	8986.52	8953.12	8953.32	8909.12	8914.72	8905.52	8893.72	8971.52	8952.12	8931.52	8931.52
665.664	14459.6	1041.76	9019.55	9003.48	8970.08	8935.88	8911.68	8934.88	8898.48	8924.88	8870.28	8918.48	8851.08	8871.08	8878.48	8921.28	8879.48	8853.28	8853.28
665.887	14376.3	1034.54	9000.57	8876.64	8902.84	8924.84	8804.24	8840.84	8842.24	8839.24	8827.04	8812.84	8811.04	8790.44	8851.84	8824.44	8807.44	8839.24	8839.24
666.11	14246.5	1033.28	8897.13	8824.6	8744.2	8739.4	8765	8799.8	8730	8753	8759.8	8732	8721.4	8761	8731.4	8729.4	8737.6	8676.6	8676.6
666.333	14090.5	1031.14	8801.45	8714.38	8624.38	8714.78	8695.38	8683.78	8670.98	8625.18	8589.78	8681.58	8708.58	8662.18	8667.78	8670.18	8706.98	8660.78	8660.78
666.556	14016.7	1030.84	8765.21	8681.88	8663.48	8673.08	8646.88	8629.88	8641.08	8700.88	8658.08	8599.68	8671.48	8659.48	8648.48	8576.88	8637.48	8660.68	8660.68
666.779	13904.9	1039.4	8689.81	8641.48	8630.48	8583.28	8624.08	8559.28	8571.88	8575.88	8532.08	8574.88	8580.68	8629.48	8525.28	8576.88	8591.28	8592.68	8592.68
667.002	13848.8	1034.06	8609.37	8523.84	8567.04	8522.44	8600.64	8579.64	8508.04	8505.04	8537.84	8494.44	8501.44	8533.64	8525.24	8523.24	8469.24	8489.64	8489.64
667.224	13697.7	1040.14	8553.12	8541.92	8443.32	8408.92	8435.52	8436.92	8416.92	8410.32	8387.52	8488.12	8412.12	8419.92	8439.72	8507.72	8437.32	8355.92	8355.92
667.447	13615.8	1047.46	8460.43	8442.1	8369.7	8396.9	8367.5	8371.9	8343.3	8419.3	8368.1	8392.7	8377.1	8360.3	8333.9	8299.3	8322.3	8338.5	8338.5
667.67	13583.5	1040.02	8466.07	8375	8396	8414	8414.8	8401	8400.6	8399.8	8413	8314.4	8396.6	8435.8	8348.2	8367.8	8327.8	8353	8353
667.893	13384.1	1030.62	8366.23	8307.7	8311.5	8309.9	8309.9	8295.9	8285.9	8253.9	8198.1	8332.1	8213.7	8305.3	8322.5	8283.7	8219.3	8269.3	8269.3
668.115	13366.3	1035.42	8369.83	8315.83	8334.83	8296.83	8273.23	8255.63	8221.03	8203.63	8214.43	8297.63	8258.43	8210.83	8266.83	8306.23	8262.63	8234.63	8234.63
668.338	13228.4	1032	8297.49	8187.42	8135.82	8173.42	8192.82	8179.42	8213.82	8166.62	8082.42	8180.62	8183.82	8135.82	8134.42	8154.82	8133.42	8098.42	8098.42
668.56	13142.1	1038.03	8235.93	8251.26	8155.06	8096.46	8111.86	8087.66	8094.26	8182.66	8127.46	8157.86	8140.66	8080.86	8077.06	8102.46	8161.06	8077.06	8077.06
668.783	13021.3	1048.14	8190.37	8080.64	8090.24	8007.54	8083.04	8075.24	8006.64	7997.64	8085.04	8054.64	8124.04	8004.84	7992.24	8098.04	8093.24	8034.04	8034.04
669.005	12984.3	1037.9	8147.99	8098.32	8087.92	8024.52	8057.72	8013.12	8058.12	7991.92	8105.92	8113.32	8088.12	8031.72	8007.72	8046.12	8009.32	8017.72	8017.72
669.227	12783.2	1036.46	8024.08	7942.08	7908.68	7966.28	7930.68	7981.48	7940.28	7888.48	7922.88	7952.08	7907.88	7893.68	7908.88	7990.48	7936.08	7890.08	7890.08
669.45	12777.4	1044.58	8045.67	7959.2	7908	7935	7911.4	7928.6	7882.8	7834.6	7872.2	7907.4	7925.6	7981	7918	7945.6	7937	7872.8	7872.8
669.672	12644.3	1040.36	7939.43	7863.3	7883.9	7874.7	7850.3	7852.1	7801.7	7811.7	7860.7	7850.5	7878.1	7833.3	7891.9	7862.1	7830.1	7855.1	7855.1
669.894	12508.3	1033.64	7901.1	7794.9	7783.3	7782.1	7761.5	7785.7	7757.1	7760.3	7714.7	7804.3	7766.9	7724.7	7788.5	7756.1	7755.5	7798.5	7798.5
670.116	12463.5	1035.66	7843.35	7801.42	7797.82	7761.02	7783.62	7760.42	7697.62	7728.42	7743.62	7725.02	7773.82	7752.22	7779.22	7764.82	7683.82	7709.62	7709.62
670.338	12397.7	1035.8	7829.67	7774.34	7745.74	7719.94	7699.64	7651.14	7712.34	7689.74	7707.34	7783.34	7668.54	7753.94	7685.94	7735.14	7673.14	7659.14	7659.14
670.56	12248.9	1039.86	7727.53	7649	7661.8	7625.2	7667.6	7646.2	7645.6	7587	7665	7653.4	7613.2	7646.8	7648.6	7657.6	7612.6	7650.2	7650.2
670.782	12170.1	1042.78	7627.87	7637.14	7600.14	7525.54	7613.34	7543.14	7563.74	7540.94	7536.34	7536.94	7565.74	7527.74	7518.54	7590.74	7546.34	7551.54	7551.54
671.004	12097.6	1027.32	7621.24	7610.04	7501.64	7512.24	7549.64	7519.84	7580.04	7530.44	7503.04	7543.24	7524.64	7535.44	7519.04	7444.04	7518.84	7470.24	7470.24
671.226	12059.1	1037.44	7588.05	7499.72	7476.52	7489.92	7502.92	7490.52	7499.92	7537.52	7492.32	7510.72	7555.92	7444.92	7467.32	7429.32	7476.92	7497.92	7497.92
671.448	11939	1043.32	7467.35	7395.68	7461.88	7386.08	7372.08	7433.08	7371.48	7405.28	7420.48	7364.88	7361.68	7393.68	7394.08	7379.48	7414.28	7358.88	7358.88
671.67	11784.2	1036.18	7427.61	7297.01	7345.81	7305.61	7279.81	7326.61	7280.81	7266.81	7350.01	7308.61	7247.41	7329.01	7305.41	7310.81	7307.81	7280.01	7280.01
671.891	11696.1	1029.02	7390.13	7329.4	7283	7325.6	7271.2	7321.2	7249.4	7318.6	7286.6	7296.6	7270.6	7273.8	7268	7302	7225.4	7250.8	7250.8
672.113	11618.6	1035.98	7324.48	7282.28	7327.68	7258.68	7249.08	7238.48	7256.68	7249.48	7260.08	7210.28	7169.08	7186.88	7225.08	7221.48	7188.08	7211.08	7211.08
672.334	11520.2	1036.92	7271.8	7158	7207	7154.8	7168.2	7175.4	7172.2	7308.6	7136.4	7118.8	7174.6	7172.8	7147.4	7192	7118	7119	7119
672.556	11461.5	1040.88	7202.84	7147.84	7098.64	7145.04	7152.64	7120.84	7132.44	7166.14	7168.04	7087.04	7106.84	7140.04	7187.24	7094.84	7137.64	7122.44	7122.44
672.778	11357.5	1042.6	7151.43	7075.5	7074.6	7040.9	7083.9	7058.3	7039.1	7065.3	7031.5	7051.9	7017.5	7040.3	7014.9	7009.5	7012.9	7007.7	7007.7
672.999	11238.6	1038.88	7073.33	7018.2	7042.2	6980.6	6976.6	6986	6947.8	6970	6941	6897.2	6908	6978.2	6978.4	6916.6	7008.6	6974.2	6974.2
673.22	11199.3	1043.59	7030.62	6977.42	6960.82	6922.82	6940.62	6953.62	6916.82	6935.82	6944.02	6928.42	6927.82	6968.42	6913.22	6905.02	6941.42	6918.62	6918.62
673.442	11054.5	1047.9	6943.8	6890.8	6880.2	6809.8	6813.4	6836.4	6858.6	6894.8	6850	6841	6838.2	6822.8	6869	6831.4	6893.8	6852.6	6852.6
673.663	11057.8	1045.78	6956.09	6889.56	6855.96	6799.76	6853.16	6824.96	6888.76	6813.96	6844.76	6847.36	6810.96	6869.36	6872.36	6913.96	6792.36	6830.96	6830.96
673.884	10976.3	1044.6	6917.27	6905	6855.6	6803.4	6824.2	6789	6763	6825.4	6807.4	6846	6809.2	6791.8	6819.4	6828	6834.2	6865.8	6865.8
674.105	10880.2	1044.82	6816.96	6769.36	6785.36	6759.96	6810.56	6748.56	6691.36	6813.76	6745.76	6759.96	6831.76	6772.36	6740.96	6746.16	6720.56	6730.16	6730.16
674.326	10762.7	1033.98	6793.84	6721.24	6662.64	6748.24	6769.24	6632.24	6745.64	6648.64	6719.24	6694.04	6721.04	6671.24	6730.64	6686.24	6760.04	6707.24	6707.24
674.547	10733.2	1035.84	6760.77	6742.5	6690.5	6688.1	6682.3	6662.5	6696.5	6688.7	6693.1	6664.9	6695.5	6610.5	6698.7	6677.1	6676.7	6646.9	6646.9
674.768	10567.4	1036.86	6673.97	6640.3	6642.7	6618.1	6609.7	6648.3	6665.1	6583.5	6597.1	6598.9	6618.9	6607.3	6631.9	6612.7	6650.1	6531.7	6531.7
674.989	10501.9	1040.42	6642.05	6583.18	6627.58	6470.58	6584.98	6512.18	6582.78	6578.98	6530.18	6531.58	6567.18	6510.78	6561.78	6521.78	6539.38	6526.38	6526.38
675.21	10445.8	1046.76	6586.14	6543.74	6535.94	6466.14	6522.34	6550.34	6562.34	6466.34	6563.14	6588.74	6525.54	6507.54	6489.94	6447.94	6492.94	6475.14	6475.14
675.431	10339.2	1033.86	6522.17	6499.04	6502.24	6469.04	6465.24	6479.24	6479.64	6475.24	6454.84	6442.84	6437.84	6459.64	6460.64	6450.24	6445.64	6441.84	6441.84
675.652	10351.9	1037.46	6495.65	6463.52	6468.92	6530.52	6458.92	6505.12	6433.52	6437.92	6458.72	6451.12	6446.32	6450.32	6450.72	6525.32	6420.72	6472.72	6472.72
675.873	10132.9	1032.12	6387.91	6360.38	6340.78	6339.18	6366.58	6294.58	6362.38	6310.58	6317.58	6387.58	6335.98	6299.18	6345.38	6344.58	6326.58	6378.18	6378.18
676.093	10126.1	1037.86	6393.56	6405.96	6387.76	6338.76	6376.16	6331.96	6360.76	6343.36	6335.56	6291.36	6307.76	6268.56	6338.16	6330.76	6332.56	6342.56	6342.56
676.314	10037.8	1035.52	6381.79	6269.32	6252.52	6303.72	6308.92	6270.12	6283.52	6254.72	6294.32	6277.52	6244.12	6287.72	6269.72	6272.72	6250.12	6360.92	6360.92
676.535	9968.14	1039.22	6332.41	6332.94	6307.14	6265.14	6255.74	6276.54	6280.94	6274.14	6215.14	6264.94	6184.74	6287.74	6333.54	6215.74	6190.34	6232.74	6232.74
676.755	9900.67	1041.52	6247.49	6217.82	6178.42	6149.62	6193.42	6236.82	6191.62	6152.22	6107.02	6156.42	6208.42	6245.22	6155.82	6134.02	6133.02	6149.02	6149.02
676.975	9863.75	1040.54	6228.92	6187.32	6139.92	6131.72	6162.12	6182.12	6162.72	6150.92	6209.52	6160.32	6211.52	6179.72	6148.72	6169.92	6120.32	6188.52	6188.52
677.196	9761.71	1035.88	6181.09	6092.42	6092.22	6113.82	6091.82	6156.62	6108.42	6143.02	6129.22	6104.02	6124.42	6097.62	6089.42	6115.62	6125.42	6127.42	6127.42
677.416	9659.15	1036.82	6085.53	6085.06	6013.66	6039.46	6028.06	6070.66	6049.86	5995.26	6041.26	5983.26	6071.46	6037.86	5977.66	6019.66	6020.86	5973.66	5973.66
677.637	9559.51	1048.88	6058.77	6001.7	5993.7	5988.1	6019.7	5974.3	5991.7	6004.9	5991.7	5967.3	6001.1	5991.5	5959.7	6022.9	5939.9	5977.1	5977.1
677.857	9554.23	1041.64	6041.39	6028.26	5952.86	5990.06	5980.86	5992.06	5923.16	5943.46	5994.86	5965.46	5965.26	5982.46	5949.06	6013.46	5919.66	5993.46	5993.46
678.077	9470.77	1041.62	5991.51	5977.44	5920.44	5966.24	5943.84	5922.24	5922.84	5902.74	5928.04	5876.24	5906.24	5949.04	5929.24	5893.84	5878.64	5908.84	5908.84
678.297	9382.74	1043.24	5934.41	5923.88	5890.08	5886.08	5883.48	5858.28	5849.68	5824.28	5870.48	5859.68	5889.08	5905.88	5849.68	5861.48	5915.48	5874.48	5874.48
678.517	9324.7	1038.58	5869.77	5835.64	5870.24	5835.64	5815.64	5789.64	5777.44	5781.24	5841.64	5845.44	5816.24	5804.64	5871.04	5808.24	5779.24	5807.84	5807.84
678.737	9266.43	1042.96	5839.49	5811.96	5838.96	5798.16	5792.96	5778.56	5785.96	5811.96	5784.16	5785.36	5746.76	5811.16	5809.96	5757.16	5738.96	5734.36	5734.36
678.957	9180.73	1040.3	5774.69	5758.22	5741.22	5729.22	5758.42	5733.42	5652.62	5773.42	5715.42	5705.82	5759.02	5767.62	5746.62	5735.42	5750.42	5688.42	5688.42
679.177	9093.62	1040.9	5745.4	5726.4	5763.4	5750.4	5721.2	5692.4	5700.8	5653	5686.2	5672.6	5697.2	5728.2	5697.2	5694.8	5677.6	5671.8	5671.8
679.397	9010.73	1037.5	5696.77	5685.84	5633.04	5646.44	5626.64	5620.84	5622.84	5645.84	5607.04	5600.04	5644.24	5630.44	5690.44	5639.64	5647.84	5608.84	5608.84
679.617	8925.56	1029.52	5640.79	5655.52	5607.92	5585.92	5578.92	5625.72	5622.52	5591.52	5600.52	5583.52	5616.52	5561.32	5584.32	5610.12	5566.12	5579.52	5579.52
679.837	8894.81	1035.97	5630.96	5618.36	5641.36	5541.16	5528.16	5577.56	5638.36	5534.36	5594.16	5607.36	5570.96	5567.56	5561.56	5553.56	5571.76	5560.56	5560.56
680.056	8742.62	1035.42	5536.22	5500.02	5485.82	5489.02	5478.62	5445.42	5479.02	5504.22	5434.22	5475.02	5465.82	5433.42	5479.22	5436.22	5428.82	5454.22	5454.22
680.276	8689.98	1040.6	5509.48	5462.48	5492.28	5385.08	5455.68	5449.88	5463.68	5417.08	5414.48	5446.68	5433.88	5438.88	5411.68	5424.88	5422.28	5443.28	5443.28
680.496	8654.25	1037.58	5484.19	5494.72	5378.72	5398.12	5483.52	5443.12	5419.92	5430.92	5387.92	5445.02	5389.32	5444.32	5415.72	5456.32	5459.52	5394.92	5394.92
680.715	8559.55	1038.72	5438.49	5446.22	5402.02	5431.82	5395.22	5402.62	5381.82	5383.42	5373.42	5324.02	5404.82	5391.22	5340.22	5391.82	5334.82	5329.82	5329.82
680.935	8523.44	1037.06	5440.7	5405.5	5338.9	5366.9	5365.5	5355.3	5308.5	5425.1	5375.3	5393.3	5339.9	5344.7	5350.7	5369.3	5372.3	5328.1	5328.1
681.154	8405.37	1043.6	5342.67	5282.54	5343.74	5302.34	5245.14	5317.74	5297.94	5271.54	5296.54	5307.74	5258.74	5268.34	5314.14	5280.94	5315.94	5273.34	5273.34
681.374	8368.96	1043.72	5306.22	5269.22	5328.42	5266.42	5270.42	5194.22	5263.82	5224.62	5288.42	5245.42	5207.02	5251.42	5263.82	5224.42	5230.02	5203.02	5203.02
681.593	8301.9	1041.12	5267.83	5213.5	5217.1	5200.3	5206.3	5214.1	5199.3	5280.5	5192.5	5250.1	5264.1	5181.5	5235.5	5182.9	5176.9	5243.7	5243.7
681.812	8237.25	1034.3	5206.81	5165.14	5223.34	5190.94	5250.34	5176.74	5134.54	5157.74	5189.54	5180.34	5173.14	5183.54	5171.34	5136.54	5219.94	5152.14	5152.14
682.031	8147.83	1039.5	5170.68	5098.08	5110.68	5145.88	5143.48	5130.08	5087.88	5087.48	5120.48	5119.88	5080.08	5109.68	5119.48	5115.48	5154.68	5167.48	5167.48
682.251	8110.2	1039.88	5174.6	5078	5118	5124	5120	5107.6	5079.6	5101.8	5057.8	5096.4	5060.4	5077.6	5140.8	5102.8	5091.4	5090.2	5090.2
682.47	8054.68	1037.76	5125.31	5032.08	5070.28	5064.68	5043.88	5110.68	5077.88	5065.88	5070.08	5055.88	5082.88	5050.48	5045.48	5029.48	5023.08	5011.48	5011.48
682.689	8004.69	1032.56	5120.74	4989.34	5022.14	5046.74	5059.34	5070.34	5049.74	4978.14	5011.14	5042.34	5037.84	5011.14	5039.74	4973.34	5032.54	5011.14	5011.14
682.908	7880.98	1032.66	4999.76	4981.56	4961.56	5018.56	4928.36	4992.36	4954.16	4983.76	4960.76	4899.16	4973.96	4992.96	4978.76	4874.36	4868.76	4940.56	4940.56
683.127	7877.15	1034.7	5000.47	4906.14	4903.14	4934.34	4914.34	4968.14	4963.54	4903.14	4942.34	4941.94	4997.54	4923.34	4932.14	4856.34	4923.54	4919.54	4919.54
683.346	7812.75	1032.18	4965.67	4938.8	4959	4908.8	4890.4	4865.4	4890.6	4900.4	4891.2	4853.6	4888.6	4882.8	4923.6	4901.6	4894.4	4900.6	4900.6
683.565	7762.4	1036.52	4913.17	4886.5	4903.3	4852.1	4903.5	4890.3	4904.7	4869.3	4858.1	4854.1	4853.9	4810.9	4927.1	4846.7	4874.1	4890.3	4890.3
683.783	7642	1041.36	4862.77	4842.24	4831.44	4816.84	4846.64	4815.24	4803.04	4815.44	4782.24	4826.04	4781.04	4841.24	4839.44	4824.64	4814.24	4776.84	4776.84
684.002	7583.34	1031.26	4848.51	4811.44	4786.24	4785.24	4751.44	4813.24	4801.44	4783.84	4767.84	4808.64	4757.64	4801.24	4759.04	4791.84	4777.24	4748.44	4748.44
684.221	7500.61	1046.9	4815.06	4744.86	4800.26	4729.46	4784.06	4793.26	4754.86	4747.86	4733.86	4712.86	4745.46	4766.26	4757.66	4725.86	4727.06	4755.06	4755.06
684.439	7464.19	1037.04	4790.39	4720.92	4710.12	4727.32	4709.12	4739.52	4718.92	4771.92	4775.32	4736.32	4785.12	4768.12	4737.12	4721.32	4725.32	4722.52	4722.52
684.658	7446.35	1040.12	4785.36	4740.96	4748.76	4752.56	4749.76	4741.36	4748.36	4712.56	4762.16	4753.36	4685.76	4763.16	4744.36	4703.96	4774.76	4707.36	4707.36
684.877	7354.01	1037.18	4729.06	4637.06	4694.66	4632.06	4637.66	4649.66	4655.46	4682.26	4629.06	4672.86	4662.86	4677.86	4663.86	4646.66	4619.46	4653.46	4653.46
685.095	7267.18	1035.06	4659.71	4616.11	4612.91	4602.31	4587.91	4614.91	4596.11	4591.31	4591.71	4608.51	4603.11	4569.51	4581.31	4642.51	4641.11	4593.71	4593.71
685.314	7254.18	1037.8	4634.44	4625.84	4625.64	4610.24	4646.24	4548.44	4601.24	4635.04	4604.84	4610.44	4594.64	4611.44	4619.44	4587.44	4531.64	4558.64	4558.64
685.532	7163.94	1041.16	4584.51	4536.58	4534.18	4555.18	4577.98	4561.38	4545.18	4565.98	4531.78	4513.98	4558.58	4536.18	4540.58	4513.18	4532.18	4536.58	4536.58
685.75	7108.26	1029.9	4575.2	4500.6	4522.4	4504.8	4499	4547.2	4512.2	4516.8	4466.6	4484.6	4496	4479	4535.4	4476	4531	4459.2	4459.2
685.969	7018.38	1037.45	4510.3	4499.4	4477.2	4467.6	4490.4	4444.4	4466	4491.4	4447.8	4449.8	4468.6	4474	4432.8	4493	4469.8	4439.2	4439.2
686.187	7028.14	1046.26	4509.51	4472.64	4438.04	4460.24	4458.04	4477.04	4458.44	4454.24	4407.84	4483.04	4421.24	4396.84	4478.44	4480.04	4520.04	4470.64	4470.64
686.405	6937.99	1043.9	4462.39	4359.32	4376.12	4375.72	4385.92	4419.92	4362.72	4406.72	4362.52	4403.92	4454.12	4382.32	4398.72	4406.12	4413.72	4362.52	4362.52
686.623	6854.34	1042.54	4413.51	4367.98	4347.78	4333.78	4337.58	4374.58	4301.38	4416.78	4338.58	4331.18	4370.18	4355.78	4358.38	4390.38	4360.58	4377.18	4377.18
686.841	6817.46	1037.52	4379.77	4362.24	4291.24	4318.24	4376.84	4319.84	4297.84	4312.64	4300.84	4336.24	4278.44	4313.04	4271.24	4304.64	4399.44	4288.04	4288.04
687.059	6749.65	1035.8	4325.7	4308.7	4305.3	4337.9	4322.9	4261.4	4294.9	4282.1	4245.7	4307.1	4313.7	4306.3	4289.7	4248.9	4315.7	4263.5	4263.5
687.277	6706.43	1036.58	4325.25	4269.72	4223.52	4249.92	4244.72	4235.52	4263.12	4271.72	4229.72	4245.52	4257.52	4256.52	4290.72	4244.32	4286.92	4257.52	4257.52
687.495	6647.85	1036.76	4276.34	4240.94	4247.74	4286.74	4201.34	4196.54	4300.94	4225.74	4226.74	4187.94	4235.94	4215.14	4218.74	4212.54	4132.34	4207.74	4207.74
687.713	6600.43	1048.76	4256.23	4264.83	4225.83	4211.83	4201.43	4190.23	4223.23	4170.63	4200.83	4163.83	4216.43	4220.23	4273.03	4234.23	4165.83	4188.63	4188.63
687.931	6523.21	1043.64	4212.37	4197.5	4150.3	4191.5	4138.1	4185.1	4182.1	4171.3	4111.9	4173.3	4215.5	4124.3	4123.9	4146.3	4162.9	4127.1	4127.1
688.148	6484.01	1032.66	4162.69	4180.02	4093.82	4149.62	4129.42	4143.22	4117.42	4138.02	4159.62	4115.22	4098.22	4129.42	4132.82	4114.82	4155.42	4099.42	4099.42
688.366	6446.71	1032.78	4146	4165.6	4127.8	4124.8	4107.2	4153.8	4122.6	4093	4160	4098.6	4067	4101.8	4131.2	4085.6	4180.2	4066.8	4066.8
688.584	6376.78	1036.46	4116.07	4092.54	4105.34	4094.74	4053.14	4022.54	4066.54	4045.94	4084.94	4073.74	4120.34	4099.54	4078.34	4062.94	4060.74	4029.74	4029.74
688.801	6334.58	1035.62	4094.91	4053.74	4027.94	4077.94	4018.54	4012.74	4053.34	4036.54	4008.34	4041.34	4080.54	4043.14	4007.34	4041.14	4046.94	4030.34	4030.34
689.019	6268.1	1038.58	4036.97	3972.84	4043.24	4052.04	4034.04	4037.04	3967.64	3993.24	4024.24	4025.24	4024.04	4001.84	4049.84	4018.24	4012.44	4003.24	4003.24
689.236	6256.48	1034.04	4015.22	4012.42	4047.02	4001.22	4014.42	3951.02	3990.22	3997.62	3928.22	4011.22	4015.22	3990.22	3934.82	4012.02	4010.62	4005.02	4005.02
689.454	6180.12	1039.44	4002.2	3950.6	3948.2	3917.2	3955.6	3961.4	3956	3941.8	3929	3973.4	3943.2	3950.6	3908.2	3976.4	3976.4	3979	3979
689.671	6147.26	1036.72	3976.57	3968.84	3927.24	3917.24	3923.24	3952.44	3922.64	3928.44	3912.84	3945.64	3905.24	3934.44	3936.04	3924.84	3915.64	3916.84	3916.84
689.888	6130.58	1037.62	3951.1	3907.7	3892.9	3939.1	3866.7	3915.9	3890.9	3903.9	3892.1	3892.5	3922.5	3890.7	3913.9	3916.7	3892.1	3920.7	3920.7
690.105	6023.69	1040.78	3879.71	3882.78	3871.38	3861.98	3863.38	3834.38	3844.38	3853.78	3786.78	3812.58	3859.58	3831.78	3848.98	3865.98	3876.58	3859.18	3859.18
690.323	5967.37	1035.98	3840.86	3863.13	3762.93	3771.73	3837.93	3812.13	3812.13	3802.93	3783.53	3799.53	3800.93	3810.93	3803.73	3810.53	3786.73	3791.33	3791.33
690.54	5941.45	1032.9	3861.41	3805.48	3796.28	3816.08	3769.28	3775.88	3817.08	3776.28	3775.88	3804.68	3778.68	3821.88	3765.88	3772.08	3818.68	3762.88	3762.88
690.757	5887.48	1031.1	3792.25	3794.38	3739.18	3751.58	3785.58	3816.98	3730.58	3734.38	3815.38	3763.38	3748.98	3767.98	3752.38	3721.78	3804.58	3801.98	3801.98
690.974	5859.25	1038.1	3777.99	3734.06	3776.26	3795.66	3759.26	3752.66	3732.66	3732.86	3717.86	3701.86	3733.46	3781.36	3715.66	3750.06	3771.66	3711.66	3711.66
691.191	5788.74	1039.32	3728	3675	3664	3681	3734.6	3735.8	3712.4	3667.6	3679.8	3671.4	3694.4	3695.6	3703.8	3709.2	3683	3614.4	3614.4
691.408	5730.55	1042.16	3688.49	3671.62	3684.22	3675.22	3674.62	3703.82	3681.22	3636.42	3615.22	3605.02	3681.22	3617.22	3690.02	3652.02	3660.62	3679.42	3679.42
691.625	5667.49	1039.36	3660.49	3687.76	3637.16	3651.56	3664.76	3691.16	3686.36	3651.76	3641.76	3664.96	3648.36	3649.36	3586.56	3667.76	3653.36	3645.36	3645.36
691.842	5633.63	1036.06	3685.76	3638.76	3668.36	3646.16	3639.96	3643.96	3624.76	3616.56	3657.36	3592.76	3655.96	3609.16	3659.76	3625.96	3647.56	3659.16	3659.16
692.058	5575.98	1041.24	3636.05	3610.32	3611.72	3558.52	3576.32	3589.12	3599.92	3606.52	3598.52	3613.32	3634.72	3618.72	3606.72	3610.52	3610.92	3620.32	3620.32
692.275	5546.93	1042.62	3631.09	3599.56	3601.56	3544.56	3565.36	3576.76	3556.56	3642.96	3625.96	3587.96	3596.76	3541.36	3555.76	3562.56	3595.36	3589.16	3589.16
692.492	5482.35	1038.34	3582.09	3579.36	3546.16	3534.36	3526.16	3571.56	3548.16	3556.36	3537.16	3547.56	3528.36	3506.56	3560.36	3575.36	3525.16	3497.16	3497.16
692.708	5417.94	1035.72	3523.13	3519.06	3473.06	3484.66	3488.16	3495.66	3493.26	3481.46	3515.86	3527.06	3455.66	3485.26	3510.46	3521.46	3504.06	3487.26	3487.26
692.925	5379.18	1030.86	3508.15	3499.22	3511.82	3440.02	3469.02	3473.42	3485.02	3507.62	3470.82	3458.22	3474.42	3532.02	3486.22	3495.62	3467.42	3461.22	3461.22
693.141	5346.81	1045.92	3517.67	3493.4	3485	3476.2	3475.2	3500.4	3521.4	3478.4	3536	3484.6	3459.6	3492.2	3453.8	3451.4	3447.8	3475.2	3475.2
693.358	5318.1	1043.3	3465.77	3449.9	3413.7	3409.1	3472.5	3483.9	3460.7	3479.9	3428.9	3445.3	3440.1	3446.5	3452.5	3468.5	3461.9	3457.9	3457.9
693.574	5275.68	1044.46	3445.96	3435.96	3419.76	3414.36	3392.36	3447.96	3430.16	3435.16	3379.76	3397.56	3406.56	3417.96	3436.96	3426.56	3394.36	3392.36	3392.36
693.791	5243.77	1043.74	3421.29	3351.96	3394.76	3411.56	3364.36	3376.96	3423.76	3413.36	3430.36	3380.76	3423.36	3360.96	3377.96	3407.16	3387.76	3340.76	3340.76
694.007	5160.37	1042.86	3404.64	3384.44	3327.04	3391.24	3360.24	3379.04	3359.44	3373.04	3372.24	3332.44	3330.44	3335.84	3354.04	3329.44	3322.84	3321.24	3321.24
694.223	5124	1037.12	3346.24	3309.24	3372.44	3305.44	3301.64	3307.84	3309.24	3343.24	3298.04	3320.24	3276.64	3303.64	3337.44	3325.24	3297.04	3293.04	3293.04
694.439	5088.45	1035.12	3326.66	3329.66	3308.26	3279.66	3312.86	3250.86	3332.46	3287.46	3304.46	3332.06	3306.06	3265.66	3255.26	3281.06	3279.66	3300.86	3300.86
694.655	5060.32	1039.44	3318.21	3270.08	3281.88	3317.08	3249.68	3264.08	3257.28	3277.08	3286.08	3302.08	3263.88	3222.48	3287.48	3256.08	3297.88	3249.68	3249.68
694.872	5003.28	1039.18	3277.77	3288.84	3286.24	3248.84	3243.44	3246.84	3257.24	3241.04	3223.64	3236.44	3243.44	3259.44	3266.84	3267.04	3251.44	3234.44	3234.44
695.088	4962.88	1040	3239.39	3209.06	3195.66	3166.46	3224.86	3220.06	3236.06	3218.26	3220.06	3213.06	3243.66	3191.66	3218.66	3180.46	3238.46	3220.06	3220.06
695.304	4952.77	1046.02	3247.85	3223.52	3215.72	3208.12	3221.52	3213.92	3228.52	3188.32	3210.52	3197.52	3217.92	3203.32	3215.12	3206.52	3166.72	3182.12	3182.12
695.519	4878.22	1043.92	3206.52	3190.52	3173.12	3197.72	3164.32	3161.32	3194.72	3139.12	3158.52	3176.12	3160.12	3141.92	3164.92	3186.12	3183.72	3183.72	3183.72
695.735	4851.82	1035.7	3174.28	3117.68	3130.88	3165.08	3144.88	3120.68	3173.88	3127.08	3129.48	3141.48	3133.68	3138.48	3126.28	3116.28	3181.48	3096.08	3096.08
695.951	4813.14	1036.26	3163.72	3086.12	3138.12	3157.72	3147.72	3112.92	3101.32	3151.52	3110.32	3131.92	3107.92	3172.52	3072.32	3111.32	3114.32	3129.52	3129.52
696.167	4777.39	1044.12	3119.87	3125.5	3126.2	3113.6	3118	3069	3069.6	3115.4	3113.4	3111	3134.6	3098	3101.2	3130.4	3095.2	3085	3085
696.383	4731.44	1030.58	3103.53	3057.06	3064.06	3122.46	3084.26	3096.66	3103.46	3089.06	3056.06	3045.46	3070.06	3101.46	3048.86	3087.26	3116.86	3057.26	3057.26
696.598	4660.71	1032.34	3065.25	3016.52	3038.92	3054.12	3022.92	3049.12	3037.72	3014.32	3057.12	3086.52	3032.52	3033.72	3060.72	3027.52	3036.72	3044.12	3044.12
696.814	4636.11	1041.28	3057.85	3081.38	3082.18	3051.38	3019.38	3031.58	3018.58	3024.18	3072.58	3053.38	3033.78	3050.18	3034.38	2988.98	2981.38	3018.98	3018.98
697.029	4601.44	1030.54	3026.81	2988.34	2992.74	3024.74	2986.74	3025.34	3011.34	3046.14	3032.34	3051.34	2988.34	2992.14	2986.14	2999.34	3012.94	3036.74	3036.74
697.245	4588.79	1039.24	3021.57	2993.04	2922.64	2962.64	2988.24	2967.04	2957.44	2939.64	2995.44	2997.44	3009.84	2986.24	3002.44	2983.84	2978.84	2997.64	2997.64
697.46	4510.59	1042.42	2954.51	2948.78	2892.58	2891.18	2933.98	2944.18	2970.58	2906.58	2956.58	2944.18	2931.18	2966.78	2937.58	2906.98	2919.58	2967.78	2967.78
697.676	4501.93	1034.4	2960.4	2879.8	2910.4	2901.6	2906.8	2930	2937.8	2905.4	2920.4	2934.4	2936.4	2933.2	2915	2892.4	2899.8	2880	2880
697.891	4470.2	1039.18	2966.87	2904.24	2929.44	2949.64	2896.64	2908.24	2891.04	2896.04	2885.64	2869.04	2868.84	2889.24	2859.84	2920.64	2870.04	2877.64	2877.64
698.106	4443.51	1041.9	2912.31	2922.44	2900.04	2887.44	2867.24	2908.24	2895.84	2904.64	2869.84	2894.64	2883.44	2848.24	2881.64	2874.84	2874.24	2892.84	2892.84
698.321	4368.61	1038.74	2858.25	2873.72	2879.12	2877.52	2840.92	2829.72	2838.72	2825.12	2839.92	2849.32	2862.12	2811.72	2817.92	2835.92	2831.12	2846.12	2846.12
698.537	4351.03	1037.6	2876.95	2867.22	2856.42	2831.02	2833.02	2775.62	2785.02	2839.82	2848.22	2804.42	2794.42	2867.62	2820.82	2831.42	2841.22	2851.02	2851.02
698.752	4305.37	1034.32	2815.95	2797.02	2830.62	2809.82	2785.62	2760.42	2803.22	2812.32	2780.02	2823.42	2853.82	2808.82	2785.02	2794.82	2802.02	2838.82	2838.82
698.967	4264.73	1041.3	2801.37	2843.84	2765.04	2749.64	2766.24	2758.04	2760.24	2734.24	2791.64	2763.44	2796.44	2777.84	2759.04	2767.64	2785.24	2796.04	2796.04
699.182	4229.14	1038.4	2791.65	2794.52	2744.72	2772.12	2761.92	2759.12	2767.12	2810.72	2804.92	2751.12	2763.12	2782.92	2781.52	2786.12	2739.72	2744.12	2744.12
699.397	4196.74	1036.7	2775.01	2753.68	2752.88	2740.48	2761.68	2755.88	2773.48	2770.08	2760.28	2775.68	2798.88	2765.48	2771.68	2718.88	2756.48	2757.68	2757.68
699.612	4135.4	1031.2	2731.89	2687.22	2692.42	2706.62	2705.22	2736.82	2717.82	2698.22	2699.02	2718.82	2690.82	2689.82	2726.42	2707.82	2725.62	2707.42	2707.42
699.826	4124.94	1039.66	2731.59	2706.72	2679.52	2682.52	2658.12	2718.92	2646.72	2709.32	2677.92	2662.92	2651.72	2674.72	2650.72	2664.92	2718.02	2660.92	2660.92
700.041	4081.51	1049.08	2689.97	2691.1	2705.5	2668.1	2671.1	2683.9	2697	2634.9	2643.5	2640.3	2693.7	2602.1	2675.1	2675.9	2679.3	2638.7	2638.7
700.256	4053.19	1040.14	2683.77	2676.44	2671.64	2677.24	2664.44	2668.64	2648.64	2651.44	2639.64	2660.84	2653.84	2637.84	2708.24	2631.24	2657.64	2661.24	2661.24
700.471	3990.01	1044.62	2661.85	2611.92	2612.72	2632.52	2597.12	2623.62	2633.52	2629.72	2602.92	2635.32	2622.32	2608.92	2647.92	2614.72	2626.32	2614.52	2614.52
700.685	3974.81	1040.88	2617.69	2656.42	2600.02	2629.42	2595.62	2605.22	2606.02	2590.02	2559.22	2609.22	2631.82	2573.62	2600.82	2570.22	2583.62	2603.42	2603.42
700.9	3927.8	1046	2603.67	2582.8	2623.4	2636.2	2604.6	2556.8	2572.4	2590.6	2605.6	2571.2	2595.8	2612.2	2573.8	2559.6	2544	2593.8	2593.8
701.114	3907.58	1038.8	2605.92	2563.72	2523.72	2587.32	2584.32	2582.12	2575.32	2587.92	2572.32	2570.92	2570.72	2588.52	2586.72	2577.72	2585.32	2594.32	2594.32
701.329	3862.59	1031.78	2559.23	2547.5	2516.1	2519.5	2531.5	2557.5	2548.9	2533.3	2550.5	2518.1	2549.9	2556.9	2583.5	2534.9	2497.3	2514.7	2514.7
701.543	3825.07	1040.1	2533.45	2518.12	2495.12	2514.32	2498.52	2483.52	2508.72	2527.52	2457.72	2514.52	2504.32	2525.72	2531.72	2487.92	2524.32	2494.52	2494.52
701.758	3805.65	1038.1	2529.5	2526.3	2491.9	2502.5	2484.3	2479.7	2514.9	2498.7	2488.9	2483.1	2502.5	2479.1	2474.7	2473.7	2522.1	2501.1	2501.1
701.972	3782.24	1050.26	2518.91	2519.24	2526.84	2494.64	2509.04	2491.84	2517.24	2476.04	2496.84	2527.44	2503.64	2489.64	2521.64	2502.64	2514.64	2519.44	2519.44
702.186	3718.55	1040.1	2483.15	2472.88	2468.68	2464.88	2491.88	2449.88	2434.88	2457.68	2436.48	2445.48	2461.48	2422.68	2442.28	2473.08	2454.28	2442.08	2442.08
702.4	3725.22	1035.72	2456.59	2447.86	2400.66	2422.06	2449.66	2465.06	2454.46	2448.06	2443.86	2468.06	2450.46	2433.86	2414.06	2445.06	2453.06	2406.46	2406.46
702.615	3692.55	1031.62	2446.06	2424.46	2394.86	2438.26	2434.06	2453.86	2399.86	2386.66	2422.46	2415.46	2460.26	2431.86	2432.26	2414.66	2454.46	2432.26	2432.26
702.829	3651.76	1038.76	2426.74	2390.01	2395.41	2410.01	2389.01	2399.21	2428.41	2410.81	2429.01	2371.81	2406.61	2415.01	2412.61	2417.21	2401.41	2368.61	2368.61
703.043	3623.73	1033.96	2386.02	2428.02	2371.42	2393.62	2379.42	2406.22	2351.02	2375.02	2369.42	2355.62	2361.82	2388.22	2377.62	2381.42	2377.02	2395.02	2395.02
703.257	3562.66	1037	2362.13	2377.4	2348.6	2340.8	2369.2	2343.4	2314.4	2318	2383.8	2337.2	2382.2	2307.6	2350.8	2311.8	2308.4	2337.4	2337.4
703.471	3551.23	1041.46	2339.84	2363.44	2324.64	2326.84	2324.64	2314.04	2270.64	2312.44	2351.24	2343.64	2364.74	2327.84	2327.44	2285.64	2300.04	2341.84	2341.84
703.684	3530.23	1041.06	2333.37	2356.64	2319.04	2329.44	2308.04	2348.04	2301.24	2309.84	2326.04	2304.24	2325.44	2286.24	2294.64	2302.04	2296.84	2337.84	2337.84
703.898	3491.92	1041.86	2295.97	2286.1	2297.7	2282.3	2251.3	2278.1	2312.1	2274.3	2296.1	2297.9	2287.1	2302.9	2266.3	2291.7	2293.7	2291.7	2291.7
704.112	3465.58	1038.3	2300.64	2274.71	2293.71	2289.51	2284.91	2259.11	2270.51	2289.51	2249.31	2257.11	2271.11	2292.31	2263.71	2306.71	2257.71	2275.11	2275.11
704.326	3438.08	1038.58	2268.22	2229.02	2281.02	2291.62	2231.82	2275.42	2248.42	2262.42	2262.02	2236.22	2238.62	2243.62	2269.82	2284.82	2245.82	2239.62	2239.62
704.539	3395.97	1032.66	2242.48	2245.48	2264.88	2234.68	2246.88	2265.28	2221.28	2257.68	2220.68	2229.08	2200.48	2227.68	2239.88	2180.08	2234.28	2247.28	2247.28
704.753	3341.5	1040.4	2241.24	2234.51	2211.71	2250.31	2252.11	2219.31	2240.31	2245.91	2198.51	2230.31	2236.31	2220.51	2265.91	2253.31	2248.71	2243.91	2243.91
704.967	3365.22	1042.8	2214.89	2192.22	2203.42	2199.42	2233.62	2219.62	2225.02	2186.02	2199.42	2180.42	2161.62	2218.02	2218.22	2219.62	2218.02	2243.02	2243.02
705.18	3306.7	1044.06	2205.47	2162.8	2200.6	2203.4	2180	2224.8	2203.8	2229.8	2198.2	2181.4	2176.4	2193.8	2173.6	2157.2	2179.4	2202.6	2202.6
705.394	3284.47	1032.62	2180.85	2179.98	2154.98	2180.58	2177.18	2152.58	2149.38	2149.98	2161.38	2162.38	2158.78	2197.78	2158.58	2150.78	2175.78	2172.78	2172.78
705.607	3277.98	1036.61	2184.53	2186.4	2186.2	2166.6	2152.8	2168.8	2143.4	2184	2151.2	2168	2148.2	2147.8	2168	2136.4	2149.8	2161.2	2161.2
705.82	3236.45	1034.8	2152.14	2156.34	2145.34	2159.54	2102.54	2122.14	2095.54	2117.74	2160.74	2083.54	2173.94	2126.74	2134.14	2142.34	2112.34	2147.94	2147.94
706.034	3193.06	1039.98	2124.12	2100.32	2123.12	2133.32	2117.72	2108.12	2102.52	2119.52	2145.92	2087.32	2126.92	2114.32	2078.72	2092.12	2132.12	2106.92	2106.92
706.247	3163.8	1033.22	2101.25	2083.52	2100.92	2070.12	2079.72	2082.12	2080.12	2080.72	2063.52	2097.92	2064.32	2089.92	2090.32	2108.52	2103.52	2081.72	2081.72
706.46	3163.2	1038.58	2079.9	2063.1	2095.7	2080.9	2061.9	2118.3	2060.5	2044.5	2042.1	2062.3	2090.5	2057.5	2111.5	2072.9	2058.9	2111.3	2111.3
706.673	3117.47	1039.54	2072.15	2073.88	2055.08	2047.88	2032.88	2051.88	2030.08	2014.08	2022.48	2010.28	2050.08	2074.08	2070.68	2032.28	2022.08	2098.68	2098.68
706.886	3088.21	1046.16	2049.5	2015.7	2046.9	2039.7	2035.9	2051.9	2040.3	2061.5	1980.7	2029.3	2037.7	2017.9	2047.1	2029.3	2023.5	2039.9	2039.9
707.099	3067.27	1038.38	2036.11	2012.84	2042.64	1970.04	2027.84	2018.04	2032.84	2017.44	1990.84	2004.44	2032.84	2010.04	2007.04	2008.84	1997.84	2045.04	2045.04
707.312	3037.44	1036.16	2010.54	1947.74	2000.14	2005.34	2006.34	1969.74	1948.74	1999.34	1997.34	1964.54	2004.34	1991.14	2010.74	2019.14	2014.14	1988.74	1988.74
707.525	3007.22	1028.76	2016.57	1969.5	1972.1	2013.3	1986.7	1981.3	1949.9	1990.3	1990.7	1957.1	1967.1	1960.3	1979.3	1994.7	1973.9	1968.9	1968.9
707.738	2990.81	1033.82	1981.95	1975.42	1984.22	1939.02	1926.02	1968.82	1968.82	1947.62	1943.22	1967.02	1943.62	1915.42	1965.62	1980.62	2007.42	1947.42	1947.42
707.951	2964.5	1035.44	1953.83	1916.56	1940.56	1955.16	1934.56	1959.16	1942.36	1961.96	1915.36	1935.16	1965.96	1938.96	1949.96	1859.56	1928.16	1966.76	1966.76
708.163	2929.31	1034.66	1937.91	1935.78	1929.58	1925.98	1917.98	1909.58	1901.38	1902.78	1963.78	1944.98	1920.38	1932.38	1936.38	1928.58	1922.78	1927.98	1927.98
708.376	2898.54	1034.77	1946.77	1916.64	1928.04	1892.64	1918.84	1884.04	1900.84	1894.24	1865.24	1914.24	1943.24	1959.84	1877.24	1910.24	1943.84	1928.24	1928.24
708.589	2854.53	1029.48	1917.77	1938.5	1900.9	1880.7	1925.9	1881.9	1872.9	1899.3	1909.9	1912.7	1928.3	1895.9	1888.3	1908.3	1910.7	1897.9	1897.9
708.801	2853.94	1030.02	1906.55	1854.48	1863.88	1870.48	1891.48	1866.48	1904.08	1898.88	1869.68	1896.68	1864.48	1881.88	1899.68	1868.08	1858.08	1893.08	1893.08
709.014	2835.82	1034.86	1882.2	1860	1879.4	1869.8	1862	1824.6	1838.2	1867.4	1887.2	1852.6	1825.2	1866.2	1852.8	1876	1884	1853.4	1853.4
709.226	2804.85	1044.25	1845.81	1841.14	1828.74	1832.54	1824.14	1820.74	1848.74	1820.34	1843.14	1843.94	1835.14	1831.74	1814.74	1825.34	1828.64	1840.14	1840.14
709.439	2771.27	1046.38	1869.65	1884.78	1836.78	1845.58	1818.38	1835.38	1849.58	1826.78	1823.18	1826.78	1811.78	1839.58	1828.18	1871.38	1842.38	1824.58	1824.58
709.651	2759.71	1031.48	1837.68	1807.28	1778.48	1780.08	1822.08	1777.08	1815.08	1798.08	1805.48	1788.88	1810.68	1769.88	1829.48	1824.68	1815.88	1844.68	1844.68
709.864	2741.21	1035.72	1852.63	1810.3	1813.3	1824.5	1789.7	1810.9	1826.7	1805.5	1814.1	1804.7	1796.7	1813.1	1809.5	1840.3	1802.5	1791.1	1791.1
710.076	2700.49	1039.19	1816.39	1792.52	1789.92	1773.92	1794.52	1802.92	1792.52	1798.92	1766.52	1814.52	1801.32	1794.52	1803.92	1809.72	1789.52	1858.52	1858.52
710.288	2673.31	1037.32	1780.29	1784.42	1755.62	1756.82	1760.02	1773.22	1766.22	1799.22	1724.82	1796.62	1777.82	1768.62	1782.02	1753.82	1780.22	1783.42	1783.42
710.5	2645.02	1042.42	1782.27	1773.07	1773.87	1764.47	1737.47	1770.07	1756.87	1770.67	1752.47	1762.07	1749.27	1739.07	1743.87	1748.47	1754.67	1749.27	1749.27
710.712	2607.23	1038.58	1752.07	1725.8	1707.2	1700.4	1706.4	1736.6	1735.2	1768.6	1698	1740.2	1734.6	1673.6	1719.8	1706.2	1719.4	1727.2	1727.2
710.924	2587.23	1034.94	1716.21	1709.74	1697.34	1724.74	1714.74	1723.94	1703.34	1699.94	1737.94	1668.14	1707.54	1669.54	1714.54	1714.14	1693.94	1740.54	1740.54
711.136	2563.77	1038.7	1711.6	1692	1716	1692.6	1707.4	1737.8	1683.6	1716.2	1722	1689.8	1706.6	1661	1720.4	1677	1731	1716.5	1716.5
711.348	2534.52	1038.68	1703.73	1693.86	1685.66	1666.66	1703.46	1709.26	1711.26	1697.86	1662.66	1683.86	1690.86	1709.66	1693.06	1666.66	1703.66	1686.26	1686.26
711.56	2524.4	1037.2	1674.27	1647.6	1677	1677.2	1656.8	1694.6	1725.2	1691.8	1660.2	1649	1702	1709.4	1669.4	1617	1663.8	1655.2	1655.2
711.772	2462.63	1032.54	1653.65	1652.32	1641.72	1676.92	1667.32	1679.12	1693.72	1651.72	1633.52	1655.72	1621.12	1691.32	1645.72	1638.52	1655.72	1682.12	1682.12
711.984	2457.18	1036.86	1634.71	1640.64	1619.44	1669.24	1633.04	1631.24	1637.04	1645.44	1633.64	1660.44	1640.84	1602.24	1633.84	1653.64	1600.24	1635.84	1635.84
712.195	2439.71	1036.56	1641.54	1621.74	1616.54	1579.34	1616.94	1589.94	1630.34	1614.74	1591.54	1623.14	1610.94	1640.14	1607.54	1592.34	1607.54	1605.54	1605.54
712.407	2405.92	1040.38	1600.63	1631.9	1612.1	1585.1	1576.5	1609.3	1613.7	1616.5	1582.9	1603.1	1629.1	1587.5	1577.9	1580.3	1613.5	1602.9	1602.9
712.619	2384.7	1036.6	1586.92	1571.12	1563.32	1558.52	1567.72	1548.52	1570.32	1598.72	1559.12	1574.12	1590.92	1585.72	1594.72	1569.92	1590.92	1591.32	1591.32
712.83	2338.27	1036.76	1559.69	1568.62	1532.02	1546.22	1551.82	1564.42	1587.62	1549.02	1547.42	1544.82	1553.62	1553.42	1570.22	1557.42	1541.82	1546.62	1546.62
713.042	2326.24	1045.8	1544.38	1528.98	1531.98	1548.58	1562.78	1513.38	1538.78	1552.98	1557.18	1530.18	1568.98	1545.58	1532.18	1563.18	1569.98	1514.18	1514.18
713.253	2296.15	1039.06	1552.93	1570.6	1549.2	1558.2	1536.8	1569.6	1534	1538	1579.2	1573.2	1542.4	1555.4	1555.8	1534.2	1548	1532	1532
713.465	2284.78	1033.08	1535.93	1530.46	1518.46	1535.46	1518.46	1503.86	1512.86	1493.06	1509.26	1516.06	1517.66	1491.06	1549.46	1488.26	1532.66	1486.86	1486.86
713.676	2254.75	1030.2	1517.95	1525.88	1542.08	1504.88	1515.88	1493.68	1489.28	1524.48	1502.28	1504.48	1493.88	1539.68	1495.48	1518.28	1509.08	1479.08	1479.08
713.887	2229.58	1038.72	1491.31	1514.44	1499.44	1503.84	1492.84	1490.44	1492.24	1501.04	1487.44	1518.24	1536.84	1536.64	1508.04	1502.64	1494.04	1502.04	1502.04
714.099	2205.85	1038.72	1523.11	1519.38	1507.78	1527.38	1490.58	1521.58	1511.78	1473.58	1494.98	1470.78	1492.38	1467.78	1506.38	1504.58	1443.38	1523.38	1523.38
714.31	2181.04	1033.52	1481.81	1455.28	1489.68	1466.48	1463.08	1454.28	1471.88	1434.28	1471.28	1478.88	1478.88	1461.88	1437.28	1482.68	1461.08	1471.28	1471.28
714.521	2156.51	1030.96	1452.08	1447.08	1412.88	1414.08	1436.08	1437.08	1425.88	1439.28	1457.78	1472.88	1397.48	1427.28	1434.28	1468.88	1435.28	1436.08	1436.08
714.732	2142.01	1039.42	1463.28	1473.15	1462.75	1439.75	1407.35	1442.75	1465.75	1447.55	1459.15	1447.95	1443.35	1430.35	1461.35	1461.95	1446.55	1438.75	1438.75
714.943	2114.69	1036.94	1432.09	1434.82	1426.82	1416.62	1400.02	1439.62	1432.62	1399.62	1431.62	1428.82	1447.22	1414.82	1381.02	1433.42	1459.22	1430.22	1430.22
715.154	2092.33	1034.08	1429.42	1447.62	1397.82	1423.82	1433.42	1425.02	1400.82	1405.02	1405.22	1405.42	1367.42	1437.42	1405.82	1416.22	1402.22	1399.02	1399.02
715.365	2058.35	1046.5	1381.37	1441.3	1424.9	1382.3	1387.5	1326.7	1382.1	1392.3	1374.3	1375.9	1401.7	1386.9	1392.9	1404.3	1395.1	1377.9	1377.9
715.576	2047.95	1037.62	1393.28	1352.35	1356.55	1372.95	1377.55	1352.35	1344.35	1388.35	1347.35	1376.35	1391.95	1354.95	1359.95	1368.15	1372.55	1348.95	1348.95
715.787	2014.84	1032.98	1356.45	1373.12	1359.52	1349.92	1329.92	1351.12	1372.12	1356.52	1343.32	1386.12	1366.72	1342.12	1337.52	1364.12	1347.32	1351.32	1351.32
715.997	2004.54	1031.14	1343.49	1339.76	1337.76	1361.96	1332.56	1332.36	1325.16	1359.76	1344.36	1360.16	1330.36	1337.76	1344.36	1322.56	1347.16	1321.76	1321.76
716.208	1980.09	1040.76	1335.12	1333.32	1342.32	1318.52	1319.32	1334.12	1362.92	1314.72	1323.32	1298.32	1325.52	1345.92	1321.12	1351.12	1340.72	1337.52	1337.52
716.419	1977.88	1045.58	1326.24	1310.44	1303.84	1329.44	1315.04	1331.84	1289.24	1319.04	1326.24	1313.84	1322.44	1302.84	1310.84	1319.24	1314.24	1307.24	1307.24
716.629	1928.99	1041.2	1293.34	1335.94	1298.74	1287.34	1314.74	1286.94	1303.14	1324.94	1309.34	1263.54	1302.94	1283.34	1327.74	1310.54	1311.74	1315.54	1315.54
716.84	1910.9	1046.56	1300.13	1291.4	1281.6	1298	1283.6	1290.8	1286	1288	1322.4	1271.6	1260.6	1280	1315.2	1306.8	1278.4	1300	1300
717.05	1864.68	1036.18	1285.26	1278.66	1307.06	1243.26	1291.86	1277.06	1291.26	1261.46	1289.66	1269.86	1278.26	1243.86	1280.26	1288.46	1293.26	1279.86	1279.86
717.261	1863.26	1038.7	1259.36	1260.96	1256.36	1257.16	1262.56	1218.16	1249.76	1257.76	1244.16	1250.36	1255.36	1260.16	1267.76	1250.76	1246.16	1272.16	1272.16
717.471	1842.27	1031.6	1259.92	1231.92	1192.72	1200.52	1208.72	1222.92	1235.72	1264.32	1251.52	1264.52	1277.72	1243.12	1235.32	1243.72	1239.72	1231.52	1231.52
717.682	1814.05	1036.36	1224.11	1232.58	1182.38	1208.38	1235.18	1198.98	1213.78	1244.38	1196.98	1232.58	1237.58	1229.98	1208.58	1229.18	1211.58	1268.58	1268.58
717.892	1788.34	1033.72	1200.79	1203.06	1184.86	1216.86	1224.86	1225.26	1191.66	1201.26	1199.26	1217.66	1223.06	1208.86	1206.26	1158.26	1168.26	1219.66	1219.66
718.102	1758.17	1034.36	1208.49	1224.56	1206.56	1210.56	1214.56	1215.36	1218.36	1194.96	1199.36	1200.36	1216.36	1197.76	1202.76	1199.56	1196.36	1201.36	1201.36
718.312	1747.96	1030.42	1189.81	1156.54	1193.54	1190.74	1187.14	1179.34	1169.34	1149.94	1178.14	1186.14	1183.74	1161.54	1212.34	1166.14	1193.74	1181.34	1181.34
718.522	1738.67	1040.05	1153.11	1191.31	1181.51	1188.91	1140.91	1179.91	1177.71	1129.51	1214.51	1163.91	1168.31	1207.51	1174.51	1154.51	1159.71	1166.31	1166.31
718.732	1704.88	1045.46	1152.87	1159.74	1141.54	1141.34	1126.14	1141.74	1120.94	1135.34	1143.34	1149.94	1144.14	1149.14	1168.74	1164.54	1142.94	1118.94	1118.94
718.942	1683.64	1036.32	1175.27	1135.07	1142.87	1128.27	1165.47	1153.27	1142.07	1168.07	1136.67	1142.87	1129.47	1137.47	1135.27	1144.07	1137.87	1130.87	1130.87
719.152	1648.25	1034.58	1127.06	1120.66	1109.86	1141.66	1112.06	1092.46	1129.46	1114.06	1121.46	1099.26	1142.66	1129.46	1105.46	1097.46	1141.86	1094.46	1094.46
719.362	1638.56	1038.9	1106.13	1155.06	1111.86	1105.66	1123.06	1115.26	1097.06	1129.86	1073.66	1106.46	1087.46	1106.66	1101.86	1097.06	1128.46	1124.46	1124.46
719.572	1616.51	1036.96	1108.03	1120.96	1117.76	1114.36	1124.76	1112.16	1083.16	1090.76	1097.16	1109.16	1059.96	1122.16	1089.76	1096.56	1102.16	1103.96	1103.96
719.782	1599.38	1033.5	1076.23	1086.9	1082.7	1102.5	1078.9	1063.5	1109.1	1094.5	1071.9	1083.1	1078.7	1078.3	1073.7	1066.7	1062.1	1079.1	1079.1
719.992	1596.91	1042.36	1069.55	1071.22	1046.02	1088.42	1085.62	1050.42	1055.02	1073.22	1057.62	1032.62	1094.42	1067.62	1048.22	1048.82	1044.62	1077.02	1077.02
720.201	1567.39	1032.16	1046.47	1036.2	1049.8	1031	1023	1063.8	1050.8	1059.2	1032	1046.4	1045.4	1059.6	1019.6	1048.8	1026.2	1050	1050
