#Wavelength [nm]	White Std.	Dark spec	0[s]	19.196[s]	39.28[s]	59.326[s]	79.397[s]	99.444[s]	119.519[s]	139.565[s]	159.679[s]	179.74[s]	199.809[s]	219.897[s]	240.016[s]	260.075[s]	280.163[s]	300.252[s]	300.262[s]
420.156	2097.42	1041.24	175.34	158.74	166.94	173.54	170.54	172.74	175.14	158.74	165.54	146.74	137.54	166.54	166.94	152.74	157.34	151.34	151.34
420.431	2166.58	1035.36	163.647	183.58	147.58	155.78	192.18	183.78	188.78	168.78	156.98	158.78	171.78	163.78	152.18	173.78	186.58	195.78	195.78
420.706	2268.67	1030.26	186.033	147.3	175.9	180.7	185.9	175.7	183.5	160.9	183.5	166.3	187	187.9	185.5	163.5	158.9	177.7	177.7
420.981	2380.65	1034.74	187.66	187.86	194.26	163.06	184.86	153.46	176.46	174.06	163.66	174.06	183.86	187.86	186.46	165.66	187.86	179.26	179.26
421.256	2499.86	1039.18	198.917	186.65	208.45	151.45	190.25	165.05	185.25	210.05	177.65	188.25	163.45	157.65	177.85	164.25	231.65	203.05	203.05
421.531	2620.01	1035.34	216.253	222.12	209.32	205.52	179.12	202.32	196.12	202.72	204.72	179.92	200.52	196.52	202.92	210.52	195.12	182.72	182.72
421.805	2755.52	1037.66	214.68	227.48	214.88	182.48	211.08	217.68	205.88	193.48	189.88	202.68	187.48	224.28	214.08	207.28	199.08	225.28	225.28
422.08	2816.77	1038.16	228.027	228.56	194.56	212.56	212.36	188.76	215.56	207.36	227.36	239.96	183.96	201.56	210.16	178.36	200.76	188.56	188.56
422.355	3038.76	1025.24	249.973	234.44	252.24	219.44	226.04	216.24	216.64	223.84	224.64	237.64	238.84	231.04	236.04	198.64	224.84	212.44	212.44
422.63	3131.63	1037.56	254.047	214.78	219.38	251.38	209.18	233.98	222.18	204.18	237.18	224.38	252.58	220.98	229.78	231.38	217.78	253.38	253.38
422.904	3226.56	1029.4	250.613	243.68	224.28	245.68	236.68	245.08	227.68	205.68	229.28	217.88	212.88	210.48	225.28	225.88	243.28	229.48	229.48
423.179	3334.87	1034.14	258.687	234.42	261.22	261.42	234.02	251.62	243.42	240.02	234.62	232.62	232.22	242.42	248.02	251.22	237.42	242.22	242.22
423.453	3481.44	1035.92	260.727	246.06	238.46	262.86	265.06	260.26	267.26	263.26	247.66	239.66	289.86	220.86	230.66	241.86	233.06	240.26	240.26
423.728	3684.03	1028.28	272.447	270.98	272.58	275.58	267.98	260.78	270.58	281.18	238.98	269.18	259.18	212.98	268.18	261.58	266.98	257.58	257.58
424.002	3801.02	1038.94	279.147	250.48	271.88	302.28	242.88	246.88	253.88	266.48	291.28	273.88	259.68	266.08	237.48	264.28	248.88	255.48	255.48
424.276	3962.07	1031.66	309.193	262.86	298.86	243.66	300.66	289.46	280.46	271.46	271.66	292.66	297.46	265.06	250.06	302.86	270.66	287.46	287.46
424.551	4161.04	1032.08	329.833	337.7	317.1	286.9	319.5	309.9	304.5	304.9	299.1	307.1	292.7	297.1	323.9	311.9	290.1	325.1	325.1
424.825	4324.26	1029.46	317.7	305.9	299.1	319.5	301.1	301.3	333.7	313.3	297.5	326.9	296.3	295.3	300.9	289.7	294.5	290.9	290.9
425.099	4500.9	1028.12	336.92	336.52	323.52	337.72	316.72	328.32	359.32	334.12	333.32	305.52	308.12	332.12	341.32	294.92	305.52	311.52	311.52
425.373	4679.09	1040.28	319.973	359.64	337.04	331.04	309.84	295.84	340.24	318.84	316.84	344.44	302.64	312.04	320.84	317.04	328.24	343.64	343.64
425.647	4928.73	1035.94	356.587	348.72	346.32	370.52	310.12	334.12	351.92	349.12	360.92	331.32	365.12	343.32	329.52	353.72	343.72	315.52	315.52
425.921	5037.36	1034.86	362.32	382.32	380.72	335.52	349.32	375.12	346.52	358.52	364.12	351.32	361.32	344.72	351.72	334.12	320.52	333.32	333.32
426.195	5113.26	1043.84	371.653	362.92	385.52	353.52	346.92	354.52	349.52	364.52	337.52	343.32	369.92	334.72	366.32	359.32	343.32	369.12	369.12
426.469	5385.73	1035.36	403.32	384.52	393.72	390.52	377.52	381.72	378.92	343.92	363.72	349.52	355.12	341.32	359.12	368.92	390.32	365.52	365.52
426.743	5649.55	1031	420.367	424.9	423.9	401.5	406.7	387.5	407.3	396.3	399.7	379.5	385.1	367.5	375.3	370.9	405.3	390.7	390.7
427.017	5781.29	1032.36	450.2	416.6	399.4	454	436.6	350	435.6	406.8	427.4	393	398	413.8	429.2	413	398	422.8	422.8
427.291	6014.73	1030.96	436.42	433.42	411.62	400.02	437.82	399.62	419.62	428.82	394.02	385.42	411.62	425.02	404.02	405.82	419.82	415.62	415.62
427.565	6244.66	1035.95	464.2	446.4	453.6	418.6	439.8	430.6	432.4	436.4	445.2	432.2	413.6	439	439.4	443.4	426.8	446.6	446.6
427.838	6431.49	1031.22	464.293	485.56	445.56	441.56	443.76	425.36	435.76	419.76	440.16	448.56	430.36	417.56	422.36	410.96	440.96	424.56	424.56
428.112	6663.32	1035.58	475.673	475.14	481.54	482.54	466.54	458.14	437.94	464.94	445.74	463.34	426.54	455.74	462.34	438.34	473.54	488.14	488.14
428.385	6841.81	1031.34	509.367	486.1	508.1	460.7	468.9	466.7	496.3	496.5	479.1	469.7	436.3	492.1	474.9	476.1	456.5	470.7	470.7
428.659	7079.69	1033.82	511.767	505.5	478.3	515.5	482.7	469.3	487.9	490.9	475.7	484.9	464.9	460.9	487.9	501.3	466.3	482.5	482.5
428.932	7310.97	1041.1	540.627	515.96	531.36	551.76	493.76	520.56	509.56	540.76	506.56	503.76	521.36	498.56	514.16	495.96	514.56	512.96	512.96
429.206	7491.87	1038.46	545.133	544	525.8	489	508.4	526.5	526	518	526.4	531	512.7	509	477.4	481.4	518.8	546.4	546.4
429.479	7851.67	1040.4	558.233	561.1	545.3	552.9	563.3	540.3	569.7	560.3	536.9	552.3	535.5	556.7	513.9	542.5	520.1	528.3	528.3
429.753	7903.38	1027.28	569.593	562.26	589.66	572.16	556.46	566.06	549.06	552.06	522.26	568.86	559.46	536.06	558.06	518.06	558.66	550.66	550.66
430.026	8105.87	1037.7	582.06	555.26	554.46	550.06	551.26	567.06	551.06	563.06	522.46	536.66	532.26	565.46	593.86	551.86	575.66	512.86	512.86
430.299	8422.05	1039.9	613.953	587.82	593.02	574.42	605.62	567.62	557.82	548.82	568.22	582.82	566.42	576.62	571.02	557.22	595.02	585.22	585.22
430.572	8729.51	1029.16	630.247	619.18	606.78	599.78	586.98	606.98	600.18	589.98	593.38	598.58	579.98	567.98	613.18	589.58	588.18	592.58	592.58
430.845	8948.34	1030.98	636.687	621.02	599.42	624.82	633.62	609.42	638.22	592.22	620.02	606.82	593.02	557.62	610.82	612.62	584.62	605.02	605.02
431.118	9027.42	1039.36	653.567	619.7	645.5	651.9	638.5	651.7	677.9	650.5	666.9	617.3	633.9	637.5	624.7	627.5	619.1	613.7	613.7
431.391	9179.7	1036.3	667.92	652.92	650.92	640.12	642.52	637.52	650.52	624.32	648.92	650.52	653.52	656.52	672.72	652.72	668.32	608.52	608.52
431.664	9421.46	1026.9	692.1	689.4	688.7	646.5	652.9	661.1	658.3	697.7	650.1	668.1	659.5	662.7	651.7	662.1	671.9	662.3	662.3
431.937	9687.49	1040.48	716.947	699.28	689.08	693.48	680.88	698.28	647.88	683.48	676.08	656.88	679.68	688.68	689.28	682.68	654.48	645.28	645.28
432.21	9951.87	1042	724.647	719.38	697.58	715.18	687.58	679.58	654.98	659.18	691.38	677.38	700.38	702.98	685.58	696.18	677.18	686.78	686.78
432.483	10196.8	1031.59	764.38	737.58	766.58	720.58	722.98	742.98	706.38	714.18	734.98	723.38	726.38	728.38	706.18	731.78	708.58	733.98	733.98
432.755	10401.5	1029.3	764.147	774.28	761.28	761.28	759.18	729.28	707.68	742.88	722.88	725.28	732.08	736.28	743.88	719.08	730.08	752.28	752.28
433.028	10577.4	1043.16	763.72	738.92	771.72	775.72	729.32	742.12	770.12	752.92	751.72	707.32	726.32	739.72	769.32	741.12	711.32	751.32	751.32
433.301	10740.1	1033.3	785.633	817.1	749.5	768.5	770.1	772.7	772.9	740.7	746.9	760.7	764.5	753.3	768.7	734.1	746.1	736.1	736.1
433.573	10872.2	1044.88	808.913	828.78	789.18	803.58	776.58	811.18	778.78	778.18	791.38	783.78	783.58	808.38	794.98	780.98	768.58	784.58	784.58
433.846	11440.7	1030.93	855.26	812.86	799.06	826.06	813.06	828.06	779.86	808.66	832.86	775.26	802.86	805.66	831.46	790.26	781.26	802.86	802.86
434.118	11313.3	1043.2	848.64	828.44	858.44	805.84	831.64	820.64	819.44	795.44	802.04	815.64	816.44	776.44	797.24	826.64	819.64	824.24	824.24
434.391	11405	1034.08	855.947	856.88	815.08	830.28	831.68	801.68	819.48	797.68	809.08	830.88	823.08	805.28	834.48	821.28	812.28	832.28	832.28
434.663	11730.8	1024.12	868.59	848.59	857.79	841.39	824.79	842.19	840.39	818.59	831.39	866.99	822.99	809.39	790.99	819.39	829.99	825.39	825.39
434.936	12043.1	1034.38	915.747	888.28	857.48	879.88	854.88	861.88	874.68	862.68	870.48	879.08	840.68	853.48	846.88	851.88	853.68	848.68	848.68
435.208	12122.4	1035.92	908.667	874.4	903.6	875.6	869.6	851.4	865.4	867.8	877.6	876.2	864.6	851.8	866.4	853.4	891.4	869.6	869.6
435.48	12474.5	1029.6	930.127	917.66	881.86	914.66	904.06	912.26	896.06	896.46	913.86	879.06	896.26	886.46	869.26	898.46	883.06	870.46	870.46
435.752	12544.1	1025.62	933.553	940.12	908.32	921.72	927.52	903.92	884.92	889.32	895.52	912.72	856.32	918.92	857.92	915.92	905.32	910.12	910.12
436.024	12632.3	1036.98	935.447	969.98	920.78	922.18	955.58	894.78	901.98	917.38	893.58	892.98	900.18	910.78	893.18	907.38	908.58	905.98	905.98
436.296	12978.7	1030.5	993.487	986.82	943.62	969.82	987.22	906.22	965.82	969.82	942.22	943.82	932.22	932.02	947.42	915.42	957.42	933.02	933.02
436.568	13299.7	1034.26	1021.49	983.96	952.96	986.16	992.96	985.36	992.36	1005.96	960.96	958.76	972.36	961.16	972.96	965.96	926.56	973.56	973.56
436.84	13344.7	1034.24	1024.96	1007.36	962.76	989.96	982.56	994.16	987.56	1015.36	999.36	979.56	934.56	956.36	954.96	975.56	971.16	962.36	962.36
437.112	13711.1	1032.64	1023.58	1015.98	1017.18	1007.58	1003.38	1004.18	1014.58	1001.98	996.98	975.58	994.18	992.38	951.58	973.58	989.78	1001.38	1001.38
437.384	14138	1040.48	1079.53	1054.26	1059.46	1071.26	1056.66	1055.06	1029.46	1008.26	1035.46	1057.66	1021.06	1037.86	1018.66	1006.66	1021.46	1036.66	1036.66
437.656	14124.4	1031.02	1095.87	1062.74	1072.74	1076.34	1068.94	1036.14	1035.94	1035.54	1068.34	1050.74	1051.74	1030.74	1021.94	1035.74	1013.34	1040.14	1040.14
437.928	14231.4	1040.1	1098.06	1054.06	1078.26	1074.26	1073.06	1059.26	1041.46	1093.46	1035.46	1033.26	1041.26	1027.66	1063.66	1017.66	1035.86	1042.66	1042.66
438.199	14726.1	1037.59	1119.49	1092.82	1063.22	1101.02	1140.02	1071.22	1097.82	1083.22	1093.82	1105.22	1045.02	1054.62	1052.42	1058.62	1059.62	1056.82	1056.82
438.471	15112.5	1031.34	1164.93	1186.46	1155.06	1136.06	1137.26	1149.46	1146.06	1117.66	1091.06	1124.66	1107.66	1096.86	1117.46	1148.06	1109.66	1115.86	1115.86
438.743	15031.8	1037.88	1152.74	1126.34	1150.34	1105.14	1120.74	1110.94	1132.74	1126.54	1127.74	1105.14	1116.34	1111.34	1088.74	1094.94	1076.94	1098.94	1098.94
439.014	15520.4	1032.98	1198.11	1144.38	1178.78	1148.58	1174.58	1183.78	1144.38	1146.98	1156.98	1166.78	1156.78	1144.78	1146.18	1154.98	1156.38	1138.78	1138.78
439.286	15873.8	1037.96	1206.19	1215.86	1186.06	1198.46	1207.66	1179.66	1199.46	1187.06	1192.86	1161.46	1177.06	1137.46	1192.46	1160.86	1177.66	1165.86	1165.86
439.557	15808.6	1041.78	1222.69	1217.76	1188.96	1169.36	1180.36	1177.56	1182.56	1184.76	1186.76	1180.56	1189.96	1145.56	1147.16	1167.56	1168.16	1170.16	1170.16
439.828	16376.8	1036.02	1277.59	1243.72	1246.52	1235.32	1219.52	1189.32	1198.32	1268.72	1163.32	1223.72	1230.52	1240.52	1222.32	1216.32	1222.92	1194.92	1194.92
440.1	16777.5	1022.36	1282.49	1282.82	1236.42	1251.42	1291.82	1245.42	1214.02	1260.82	1220.82	1242.02	1258.02	1250.02	1211.82	1241.62	1231.82	1242.02	1242.02
440.371	16694.5	1035.96	1317.45	1262.92	1273.72	1276.32	1254.52	1271.72	1286.32	1233.72	1247.12	1233.92	1273.92	1259.72	1266.12	1245.52	1235.52	1246.92	1246.92
440.642	17201.6	1038.64	1337.92	1326.32	1295.32	1295.52	1280.32	1263.32	1319.72	1275.12	1267.52	1287.52	1260.72	1280.52	1317.52	1293.92	1251.52	1307.52	1307.52
440.913	17586.5	1039.02	1360.47	1365.4	1317.8	1338	1344.4	1295.2	1331	1318.2	1305.4	1341.4	1302.6	1286.8	1317	1303.8	1305	1316.8	1316.8
441.184	17794	1042.88	1377.03	1369.76	1371.26	1352.76	1350.16	1349.56	1359.96	1386.36	1326.16	1345.16	1318.56	1319.76	1350.96	1328.36	1312.16	1325.56	1325.56
441.456	18180.6	1035.08	1439.26	1428.06	1419.06	1401.46	1416.76	1399.06	1419.86	1396.86	1389.06	1388.06	1377.26	1335.46	1342.26	1360.26	1355.06	1375.46	1375.46
441.727	18413.2	1034.07	1459.3	1395.1	1416.5	1421.5	1434.3	1407.9	1424.3	1403.7	1386.9	1382.3	1362.9	1390.9	1419.9	1385.1	1365.1	1370.7	1370.7
441.998	18848.1	1032.18	1477.41	1493.34	1446.14	1439.74	1458.54	1430.34	1473.94	1451.94	1459.74	1457.14	1418.34	1407.74	1423.14	1405.54	1427.74	1388.34	1388.34
442.268	19392.6	1035.64	1529.51	1485.38	1510.38	1464.98	1491.78	1499.38	1493.78	1450.58	1439.98	1458.58	1456.98	1434.38	1433.18	1472.58	1448.58	1446.38	1446.38
442.539	19370.6	1032.58	1511.95	1524.62	1485.62	1513.02	1467.62	1483.22	1463.62	1459.62	1460.22	1496.82	1471.22	1449.02	1456.62	1450.42	1463.22	1468.22	1468.22
442.81	20290	1032.08	1607.8	1584	1619.2	1595	1543.2	1561.8	1557.4	1543	1583.4	1551.4	1581.6	1522.6	1520.2	1557	1513.2	1544	1544
443.081	20151.4	1030.6	1600.65	1595.85	1568.25	1560.65	1590.45	1577.25	1559.85	1543.05	1519.25	1520.45	1535.45	1533.05	1498.05	1501.45	1508.25	1535.85	1535.85
443.352	20682	1038.04	1636.71	1658.64	1600.24	1607.24	1596.24	1550.84	1583.24	1571.64	1587.04	1571.64	1588.04	1578.84	1610.44	1563.44	1574.84	1575.44	1575.44
443.622	20915.1	1037.3	1669.31	1672.84	1611.44	1620.44	1639.64	1593.64	1625.24	1612.04	1600.64	1569.84	1600.84	1587.24	1585.84	1562.24	1606.64	1578.44	1578.44
443.893	21308.2	1041.54	1713.67	1678.2	1698.4	1671.2	1696.6	1654.6	1626.4	1645.4	1607.8	1641.6	1629.4	1650.2	1603.6	1653	1608.8	1621.2	1621.2
444.163	21839.2	1029.34	1752.63	1731.56	1723.36	1755.76	1688.76	1689.16	1688.16	1669.76	1693.56	1688.56	1691.76	1649.16	1665.76	1663.96	1663.56	1641.56	1641.56
444.434	22149.1	1033.84	1759.36	1737.76	1767.36	1734.96	1735.96	1748.76	1740.56	1734.96	1710.36	1736.16	1714.76	1704.16	1693.96	1709.16	1668.36	1690.76	1690.76
444.704	22429.9	1034.4	1801.19	1800.52	1756.72	1782.32	1759.32	1751.92	1747.52	1746.12	1722.32	1778.12	1723.32	1733.32	1724.12	1729.92	1710.32	1684.12	1684.12
444.975	22919.3	1037.86	1839.35	1881.48	1793.08	1771.48	1795.88	1786.08	1788.08	1792.68	1758.68	1792.08	1751.88	1787.48	1749.08	1731.28	1765.88	1731.08	1731.08
445.245	22974.9	1040.14	1880.49	1830.42	1828.62	1804.02	1796.62	1810.82	1803.62	1805.42	1814.02	1793.82	1789.82	1781.02	1805.22	1778.42	1776.62	1802.02	1802.02
445.515	24052.1	1038.04	1951.51	1900.38	1882.38	1891.38	1926.18	1909.78	1870.38	1878.98	1850.98	1912.38	1862.58	1831.38	1886.58	1893.38	1839.78	1831.78	1831.78
445.786	23975.5	1041.38	1957.04	1913.84	1926.84	1908.44	1861.44	1893.04	1870.24	1855.24	1889.44	1868.04	1836.04	1827.04	1849.44	1861.84	1845.44	1862.04	1862.04
446.056	24639.7	1032.82	2004.23	1983.16	1929.16	1972.96	1919.16	1910.36	1955.16	1915.16	1949.56	1921.96	1923.56	1890.16	1916.96	1896.16	1897.16	1930.56	1930.56
446.326	24847.5	1046.8	2038.37	2033.5	1997.5	1950.7	1950.5	1991.1	1970.1	1915.9	1911.5	1954.5	1938.3	1923.5	1925.1	1923.3	1927.9	1918.3	1918.3
446.596	25224.9	1031.38	2083.07	2039.74	2016.54	1974.14	1955.14	1961.94	1996.94	2007.54	1971.54	1979.34	1986.74	1940.54	1948.54	1914.14	1968.94	1972.14	1972.14
446.866	25501.2	1042.52	2083.17	2071.44	2021.24	2063.84	2027.04	2023.64	2018.44	2018.84	2003.04	2000.24	2032.44	1991.04	2007.64	1974.04	1968.84	1993.04	1993.04
447.136	25743.3	1045.44	2125.32	2061.92	2101.92	2051.12	2055.32	2024.52	2050.12	2028.12	2029.12	2046.12	2002.92	1979.92	2058.72	2014.92	2006.12	1991.72	1991.72
447.406	25906	1034.9	2108.27	2094.6	2090.6	2079.8	2079.8	2063.6	2029	2068.8	2011.4	2061.2	2037.2	2011.4	2046.6	2006.6	2027.8	2023	2023
447.676	26311.4	1037.14	2181.39	2146.32	2114.12	2167.72	2104.32	2111.32	2105.92	2114.32	2073.12	2084.92	2062.72	2069.32	2111.12	2103.32	2069.52	2068.32	2068.32
447.946	26827.6	1029.96	2224.09	2196.56	2170.36	2143.76	2166.96	2170.36	2124.96	2113.76	2142.16	2113.16	2126.96	2100.96	2108.96	2095.56	2132.56	2107.56	2107.56
448.215	26646.9	1040.32	2202.68	2213.28	2195.28	2136.68	2168.28	2133.08	2153.48	2122.88	2150.88	2160.88	2113.88	2111.68	2148.28	2129.08	2130.08	2123.08	2123.08
448.485	26791.3	1037.9	2229.97	2198.5	2219.3	2197.1	2178.1	2163.3	2184.1	2152.5	2168.9	2142.3	2159.9	2152.1	2104.9	2126.9	2170.7	2115.1	2115.1
448.755	27135.4	1028.58	2285.34	2274.94	2244.54	2216.34	2224.94	2220.74	2195.54	2200.54	2231.94	2176.74	2184.94	2162.54	2152.14	2171.94	2179.54	2173.34	2173.34
449.024	27508	1048.28	2333.88	2293.68	2282.48	2275.68	2257.08	2230.28	2216.48	2271.28	2239.48	2227.08	2265.48	2198.08	2216.28	2212.88	2218.48	2196.08	2196.08
449.294	27269.9	1034.62	2293.61	2281.74	2282.34	2278.94	2237.14	2228.54	2261.14	2239.54	2229.94	2229.94	2256.74	2228.94	2218.14	2205.14	2200.34	2196.54	2196.54
449.563	27330.9	1036.2	2331.14	2353.34	2256.34	2253.94	2300.14	2257.94	2252.14	2261.14	2252.94	2270.54	2190.34	2204.14	2204.14	2225.94	2209.74	2206.14	2206.14
449.833	27548.3	1031.74	2366.03	2333.76	2309.36	2311.76	2264.36	2285.76	2241.16	2255.56	2287.36	2257.76	2261.16	2241.76	2282.96	2200.56	2229.96	2260.76	2260.76
450.102	27971.1	1029.94	2423.37	2382.1	2350.9	2345.3	2361.3	2351.1	2347.9	2319.9	2340.5	2316.3	2325.7	2245.9	2331.5	2284.7	2260.3	2291.5	2291.5
450.372	27963.5	1036	2440.78	2437.78	2372.38	2394.18	2369.18	2325.58	2333.38	2368.58	2307.18	2334.78	2309.38	2338.98	2360.18	2312.38	2318.38	2328.58	2328.58
450.641	27496.9	1036.56	2421.59	2393.66	2338.26	2319.26	2322.26	2331.06	2340.66	2306.26	2313.46	2298.26	2313.86	2287.26	2321.46	2279.46	2292.86	2263.06	2263.06
450.91	27003.1	1026.18	2383.48	2347.88	2320.68	2318.68	2316.68	2258.68	2275.88	2283.08	2244.08	2275.28	2280.88	2288.08	2244.88	2237.88	2275.68	2249.68	2249.68
451.179	26860.6	1037.84	2364.01	2329.08	2343.68	2318.68	2323.88	2304.48	2304.28	2294.48	2274.88	2268.48	2292.28	2299.88	2263.48	2273.68	2282.28	2269.28	2269.28
451.448	27428.9	1037.26	2431.85	2360.98	2406.18	2367.58	2385.58	2325.18	2335.58	2347.78	2332.98	2310.98	2305.58	2369.98	2342.78	2320.78	2323.38	2300.38	2300.38
451.717	26384.5	1032.86	2374.96	2352.56	2332.16	2322.36	2323.36	2308.56	2282.76	2271.96	2299.96	2261.56	2277.96	2268.16	2260.16	2208.56	2274.16	2242.76	2242.76
451.986	26978.5	1030.94	2464.89	2412.82	2387.02	2331.62	2387.22	2359.42	2347.82	2314.42	2316.62	2310.42	2348.82	2333.82	2321.22	2301.82	2322.02	2342.62	2342.62
452.255	26369.4	1027.56	2401.74	2366.14	2370.74	2352.94	2328.74	2359.74	2317.74	2321.54	2301.54	2311.34	2290.34	2307.14	2281.54	2290.54	2316.54	2309.74	2309.74
452.524	25906.6	1033.16	2360.53	2333.8	2301	2310.2	2292.4	2298.6	2267.2	2282.4	2275.8	2268.4	2263.8	2261.8	2256.4	2282.6	2268.6	2241.2	2241.2
452.793	26166	1043.44	2401.91	2386.24	2305.64	2325.04	2344.24	2327.44	2283.84	2283.64	2330.24	2273.64	2258.04	2266.44	2299.24	2253.04	2298.44	2270.24	2270.24
453.062	25685.7	1030.27	2369.65	2351.52	2351.12	2329.92	2309.72	2263.52	2289.12	2292.92	2312.12	2293.32	2306.72	2299.32	2262.12	2237.52	2229.32	2267.72	2267.72
453.331	25412.9	1034.84	2361.83	2357.5	2333.3	2291.5	2281.5	2272.9	2296.5	2236.5	2272.5	2238.1	2278.5	2265.3	2264.3	2289.3	2288.3	2211.1	2211.1
453.6	24989.8	1034.62	2337.33	2338.6	2269.6	2266	2269.7	2279.8	2222.2	2258.4	2258.4	2242.2	2194.8	2218.8	2210	2290.4	2250.2	2228.4	2228.4
453.868	24542.7	1034.56	2319.99	2306.52	2258.52	2255.92	2272.72	2270.32	2227.32	2230.52	2222.12	2201.32	2180.12	2204.92	2211.52	2202.32	2213.32	2186.12	2186.12
454.137	24320.4	1038.37	2300.83	2239.96	2252.76	2256.36	2199.76	2201.16	2211.16	2199.36	2166.56	2194.16	2186.36	2200.76	2154.36	2192.96	2187.36	2196.16	2196.16
454.405	23810.9	1040.24	2275.55	2257.48	2227.48	2211.48	2199.08	2228.48	2171.08	2190.88	2175.88	2194.08	2206.88	2153.08	2186.88	2165.28	2192.28	2126.88	2126.88
454.674	23436.6	1033.4	2226.68	2188.28	2222.28	2182.68	2166.68	2154.68	2180.88	2158.88	2176.08	2141.68	2174.08	2142.88	2132.68	2128.28	2158.28	2130.68	2130.68
454.942	23098.7	1038.86	2221.85	2204.92	2164.32	2159.32	2158.12	2161.32	2142.92	2158.12	2156.32	2119.72	2118.92	2148.12	2119.52	2164.72	2125.02	2083.92	2083.92
455.211	22795.9	1033.39	2179.77	2193.84	2142.44	2142.64	2140.24	2147.64	2125.84	2120.44	2138.64	2120.24	2101.84	2130.44	2116.04	2110.04	2096.84	2080.24	2080.24
455.479	21681.6	1046.36	2113.31	2118.64	2099.84	2085.04	2060.24	2081.84	2072.64	2073.84	2043.24	1999.24	1988.84	2036.04	1984.84	2032.64	2005.84	1996.24	1996.24
455.747	21813.5	1036.76	2132.96	2081.76	2053.96	2068.76	2071.16	2110.16	2054.16	2063.16	2029.36	2026.96	2054.36	2073.96	2050.56	2034.56	2016.16	2052.36	2052.36
456.016	21753.6	1041.96	2134.45	2133.25	2071.25	2093.65	2121.25	2071.65	2087.85	2048.65	2051.85	2053.05	2062.05	2038.65	2005.05	2029.65	2004.65	2030.05	2030.05
456.284	20947.2	1033.32	2076.09	2061.16	2055.96	1999.96	2038.96	1992.56	1977.96	2023.16	2004.16	2001.56	2002.16	2000.76	1989.16	2001.16	1993.36	1973.76	1973.76
456.552	20825.3	1032.92	2074.07	2069.8	2033.2	2024.2	1986.8	2008.4	2027	2047	1981.8	2027	1987.8	1993.8	2008.6	1959.8	2024.2	2002.2	2002.2
456.82	20055.3	1032.6	2000.19	1968.12	1965.92	1948.72	1932.32	1942.52	1913.52	1919.32	1920.12	1923.92	1895.32	1926.32	1926.32	1957.52	1899.72	1920.52	1920.52
457.088	19285	1032.74	1938.95	1926.88	1930.28	1925.48	1881.88	1911.28	1895.88	1881.88	1892.68	1901.28	1848.48	1834.28	1879.08	1832.48	1873.08	1882.68	1882.68
457.356	19201.7	1037.28	1968.35	1930.08	1950.08	1915.68	1870.48	1895.28	1884.48	1910.28	1895.28	1917.88	1885.88	1866.48	1885.48	1868.68	1859.08	1850.08	1850.08
457.624	18906.7	1038.42	1953.99	1918.46	1882.86	1862.26	1867.06	1851.06	1866.66	1842.06	1876.06	1847.26	1828.66	1845.06	1864.86	1834.06	1850.06	1849.86	1849.86
457.892	18587.7	1035.96	1911.33	1862.06	1849.46	1866.06	1853.06	1814.06	1827.86	1846.66	1839.46	1770.86	1820.46	1814.66	1816.06	1863.26	1835.26	1831.46	1831.46
458.16	17760.1	1039.14	1831.84	1819.04	1815.24	1809.04	1846.44	1788.04	1762.84	1761.04	1768.24	1790.04	1757.04	1730.24	1761.64	1730.64	1757.84	1762.64	1762.64
458.428	17757.5	1034.14	1851.57	1822.7	1787.1	1815.5	1818.5	1754.9	1780.3	1793.1	1790.3	1805.5	1790.5	1757.1	1774.1	1781.1	1732.1	1763.3	1763.3
458.695	17149.1	1040.26	1777.52	1751.65	1756.65	1795.85	1724.05	1742.85	1739.85	1730.65	1738.05	1729.45	1750.25	1672.85	1711.85	1678.85	1679.85	1693.25	1693.25
458.963	17315.4	1032.32	1818.07	1784.54	1784.74	1736.34	1768.74	1771.34	1744.54	1762.94	1749.34	1743.54	1767.74	1737.74	1726.34	1745.94	1684.74	1694.94	1694.94
459.231	16807.7	1025.7	1789.85	1781.18	1696.78	1737.98	1701.38	1675.78	1702.58	1721.58	1699.18	1708.98	1692.18	1684.78	1701.98	1696.38	1676.18	1680.38	1680.38
459.498	16268.3	1035.08	1712.22	1701.82	1702.62	1686.22	1671.62	1662.02	1689.02	1658.22	1665.42	1644.62	1630.62	1633.42	1585.42	1606.62	1625.22	1605.62	1605.62
459.766	16266.5	1031.64	1731.63	1755.76	1702.56	1687.56	1691.56	1667.36	1658.56	1654.76	1651.56	1652.16	1664.36	1637.56	1675.36	1668.76	1604.16	1670.96	1670.96
460.033	16057	1037.84	1728.65	1700.52	1685.52	1668.12	1668.92	1641.72	1637.72	1647.92	1621.12	1643.12	1630.12	1642.72	1652.92	1624.32	1619.92	1631.12	1631.12
460.301	15771.6	1038.22	1698.1	1653.1	1659.7	1610.7	1642.5	1648.3	1649.1	1645.9	1618.7	1638.7	1639.3	1611.3	1595.1	1622.5	1617.3	1565.1	1565.1
460.568	15472.1	1044.44	1667.03	1664.36	1621.76	1624.36	1612.16	1599.56	1604.56	1574.36	1559.16	1545.76	1616.16	1601.16	1591.56	1558.16	1585.76	1559.56	1559.56
460.835	15294.5	1035.82	1646.99	1636.66	1633.06	1613.26	1613.26	1560.26	1639.86	1600.26	1549.26	1555.86	1565.46	1516.86	1561.26	1587.06	1589.26	1568.06	1568.06
461.103	15218.3	1031.8	1660.18	1592.38	1645.18	1632.18	1599.58	1588.78	1572.98	1577.78	1600.58	1565.18	1582.58	1539.38	1593.78	1552.18	1588.78	1584.78	1584.78
461.37	14572.1	1036.46	1584.49	1560.96	1571.96	1562.76	1550.96	1534.96	1537.36	1518.56	1533.96	1489.56	1513.36	1503.96	1502.56	1497.36	1505.16	1503.96	1503.96
461.637	14550.4	1032.64	1584.53	1543	1548.6	1567	1566	1509.2	1532.8	1528.6	1512.8	1516.4	1496.2	1496.6	1478	1493.2	1518	1490.8	1490.8
461.904	14394.5	1042.4	1590.03	1553.9	1532.1	1545.7	1529.3	1514.7	1549.3	1519.5	1513.5	1498.7	1505.9	1515.7	1456.3	1465.1	1474.7	1480.1	1480.1
462.171	14249.6	1051.72	1608.18	1560.38	1499.58	1555.78	1505.78	1490.58	1525.38	1492.18	1488.38	1524.38	1488.58	1520.78	1515.98	1508.78	1489.98	1434.98	1434.98
462.438	13937.9	1035.2	1535.65	1561.72	1526.12	1501.32	1475.72	1501.52	1519.92	1452.32	1460.12	1475.32	1466.12	1440.92	1422.52	1444.12	1440.32	1430.12	1430.12
462.705	13985.5	1040.04	1545.31	1542.98	1504.98	1494.38	1475.18	1529.58	1506.18	1467.58	1472.78	1469.38	1472.58	1480.38	1427.98	1456.98	1460.58	1457.38	1457.38
462.972	13548.7	1044.36	1517.5	1476.5	1473.9	1477.7	1459.5	1442.5	1444.7	1458.3	1445.7	1419.7	1443.7	1446.5	1446.5	1444.7	1459.9	1423.3	1423.3
463.239	13694.1	1035.16	1548.98	1493.78	1495.98	1479.38	1501.38	1498.98	1462.58	1483.98	1454.98	1469.38	1470.18	1417.78	1450.98	1456.78	1443.98	1458.58	1458.58
463.505	13198.2	1041.6	1497.93	1483.46	1457.06	1446.66	1439.66	1438.66	1422.46	1411.66	1440.06	1416.66	1406.06	1403.66	1393.86	1405.06	1450.66	1426.46	1426.46
463.772	13333.8	1042.42	1538.05	1494.38	1475.98	1493.28	1456.58	1451.78	1475.38	1451.78	1430.38	1441.98	1413.38	1435.58	1435.58	1402.58	1430.98	1450.58	1450.58
464.039	13033.5	1029.9	1495.72	1457.92	1452.92	1454.72	1423.12	1436.52	1397.92	1420.12	1403.32	1413.32	1394.72	1383.52	1376.52	1438.52	1375.32	1396.72	1396.72
464.306	12955.3	1038.7	1492.6	1463.47	1435.87	1450.07	1417.67	1461.27	1411.47	1405.07	1413.07	1421.27	1388.67	1369.87	1406.67	1394.47	1402.47	1383.87	1383.87
464.572	12996.8	1035.76	1525.69	1471.16	1476.16	1467.96	1424.16	1437.96	1419.16	1431.16	1429.76	1408.36	1444.36	1403.76	1431.36	1434.36	1411.76	1417.56	1417.56
464.839	12916.5	1030.26	1513.81	1486.74	1428.94	1426.94	1468.54	1392.74	1404.74	1383.54	1427.74	1417.14	1364.34	1414.74	1347.94	1403.14	1391.54	1414.34	1414.34
465.105	12735.1	1031.64	1502.91	1442.18	1454.58	1439.38	1412.18	1413.58	1423.38	1417.18	1384.98	1383.38	1367.98	1396.38	1389.78	1397.58	1387.38	1391.98	1391.98
465.372	12546.4	1030.42	1503.82	1466.42	1434.42	1472.82	1432.82	1399.62	1392.02	1380.82	1373.82	1357.22	1415.02	1390.22	1365.42	1362.82	1355.22	1402.82	1402.82
465.638	12280.5	1039.54	1448.28	1448.28	1427.68	1370.08	1404.88	1386.68	1382.68	1383.88	1359.88	1359.08	1389.28	1342.68	1357.68	1335.08	1360.28	1340.18	1340.18
465.904	12254.1	1038	1459.35	1409.55	1403.55	1414.15	1415.35	1404.95	1389.75	1385.95	1356.55	1410.15	1360.55	1357.15	1359.55	1335.35	1382.95	1355.35	1355.35
466.17	12171.3	1034.72	1453.2	1410.2	1406.2	1423.2	1405.4	1380.2	1363.8	1360.8	1401.6	1391	1385.8	1351.8	1381.6	1334.2	1348.2	1371.2	1371.2
466.437	12023.6	1035.14	1442.1	1399.9	1368.3	1402.7	1388.7	1386.9	1363.3	1377.7	1371.7	1352.9	1354.7	1344.9	1297.7	1322.3	1306.9	1355.1	1355.1
466.703	11969.2	1030.36	1438.45	1400.38	1420.58	1415.58	1392.78	1399.38	1402.98	1345.98	1366.78	1337.98	1380.38	1367.78	1373.78	1318.98	1354.78	1354.98	1354.98
466.969	11916.4	1025.59	1472.33	1440.66	1414.06	1397.26	1357.66	1345.86	1352.26	1379.26	1386.26	1360.66	1341.46	1337.46	1366.66	1297.46	1349.66	1325.46	1325.46
467.235	11688.9	1043	1418.27	1381.4	1360.6	1375.8	1349.2	1340	1348.8	1334.8	1329.2	1332	1296.6	1318	1313.2	1320.2	1294.8	1286.8	1286.8
467.501	11871.9	1043.24	1461.59	1414.92	1379.52	1373.52	1378.92	1382.32	1381.72	1335.32	1350.52	1364.32	1377.52	1322.52	1357.32	1338.72	1346.92	1318.12	1318.12
467.767	11698.4	1040.84	1448.29	1391.02	1384.62	1349.62	1389.42	1396.02	1353.02	1334.82	1351.62	1359.22	1357.02	1372.02	1338.82	1356.22	1346.62	1333.82	1333.82
468.033	11582.6	1031.02	1429.51	1391.44	1425.44	1351.04	1373.64	1365.64	1339.64	1347.64	1307.64	1357.84	1329.44	1357.64	1327.04	1377.04	1309.24	1316.44	1316.44
468.299	11393.1	1036.78	1411.67	1371.2	1331.4	1363.4	1366.8	1336.4	1308.6	1322.8	1285.2	1321	1332.2	1274	1318.6	1305.2	1292.4	1310.4	1310.4
468.564	11450.2	1036	1431.28	1394.68	1417.68	1379.08	1343.68	1315.68	1368.08	1348.08	1326.68	1340.88	1311.68	1321.28	1337.28	1272.48	1322.28	1301.48	1301.48
468.83	11283.4	1037.44	1422.83	1396.36	1404.96	1370.56	1346.56	1334.56	1338.56	1348.96	1315.16	1328.76	1354.36	1312.76	1301.56	1315.16	1320.96	1290.16	1290.16
469.096	11187.6	1035.34	1411.63	1331.36	1341.36	1349.56	1310.56	1318.16	1327.36	1300.56	1339.56	1305.76	1327.36	1339.96	1307.96	1286.16	1284.96	1251.16	1251.16
469.362	11150.6	1026.94	1410.45	1365.92	1373.32	1365.12	1361.12	1304.92	1339.32	1335.72	1332.72	1298.52	1344.12	1329.12	1304.92	1312.32	1313.52	1322.32	1322.32
469.627	11077.8	1029.44	1426.49	1366.02	1366.82	1345.62	1336.82	1280.42	1323.22	1336.02	1283.42	1316.42	1293.02	1301.02	1303.02	1291.82	1303.62	1302.82	1302.82
469.893	11116.3	1041.35	1435.23	1400.7	1397.1	1338.9	1379.7	1334.9	1318.1	1343.9	1323.5	1303.5	1327.7	1319.9	1306.5	1314.5	1336.1	1306.1	1306.1
470.158	11116.1	1038.88	1452.21	1436.54	1388.14	1371.54	1336.74	1346.34	1376.14	1331.54	1338.34	1355.14	1339.74	1292.54	1328.74	1292.14	1339.54	1329.34	1329.34
470.424	10895.8	1062.8	1386.35	1358.48	1362.28	1358.68	1298.08	1325.88	1340.08	1284.88	1304.48	1315.28	1273.08	1264.48	1284.88	1264.68	1289.68	1290.88	1290.88
470.689	10940.9	1026.94	1434.71	1390.18	1375.38	1348.98	1383.58	1341.78	1300.98	1296.78	1331.78	1316.38	1285.58	1294.58	1299.98	1304.18	1300.78	1285.78	1285.78
470.954	10801.6	1030.6	1437.99	1354.72	1384.72	1363.32	1328.32	1298.72	1343.72	1347.72	1309.92	1317.52	1326.92	1282.52	1301.52	1295.92	1318.72	1295.72	1295.72
471.22	10696	1025	1401.04	1357.84	1339.24	1315.64	1326.64	1308.24	1332.44	1315.44	1278.44	1307.84	1288.24	1266.84	1276.24	1271.24	1258.04	1254.44	1254.44
471.485	10713.5	1029.66	1382.85	1348.78	1377.78	1333.18	1304.38	1351.38	1327.98	1312.98	1321.18	1322.98	1312.98	1303.78	1286.98	1294.18	1293.78	1262.58	1262.58
471.75	10715.2	1036.08	1398.67	1358.94	1378.34	1352.34	1325.94	1326.14	1313.14	1284.34	1288.94	1331.74	1309.94	1279.94	1288.34	1303.14	1314.74	1265.34	1265.34
472.015	10608.6	1043.8	1419.79	1390.46	1351.86	1364.66	1355.06	1333.86	1307.26	1333.66	1321.86	1329.26	1304.66	1291.06	1292.06	1320.86	1288.66	1297.26	1297.26
472.28	10616.4	1039.5	1461.27	1408.34	1361.34	1372.14	1336.94	1309.74	1374.14	1368.34	1338.14	1325.34	1343.14	1322.74	1290.14	1313.74	1273.14	1327.34	1327.34
472.545	10487.6	1039.34	1426.04	1356.44	1354.04	1361.24	1334.44	1336.64	1338.44	1325.44	1290.64	1291.84	1317.64	1308.84	1320.74	1314.04	1295.64	1325.84	1325.84
472.81	10429.2	1026.14	1419.21	1357.14	1347.94	1364.34	1346.54	1283.54	1336.94	1345.94	1318.94	1295.54	1300.54	1300.54	1304.34	1310.94	1305.74	1319.14	1319.14
473.075	10434.3	1037.98	1410.33	1367	1347.2	1344	1357	1330.6	1342	1311.4	1300.4	1310.4	1283.8	1290	1304.2	1312.2	1276.4	1289.8	1289.8
473.34	10375.5	1036.68	1427.66	1384.46	1326.86	1350.46	1357.86	1305.66	1332.66	1309.66	1284.46	1326.26	1309.06	1284.46	1325.26	1313.06	1303.46	1289.66	1289.66
473.605	10408.3	1031.06	1454.93	1396.66	1371.26	1355.86	1375.46	1352.46	1368.26	1329.86	1329.06	1327.26	1302.26	1316.06	1341.66	1287.46	1300.06	1318.06	1318.06
473.869	10335.1	1031.76	1434.47	1394.54	1372.34	1383.94	1350.74	1327.34	1353.14	1334.14	1339.94	1291.74	1276.34	1279.94	1306.14	1295.94	1293.14	1278.14	1278.14
474.134	10361.3	1035.46	1447.29	1389.02	1366.62	1375.82	1344.62	1368.02	1321.42	1363.82	1336.02	1295.62	1322.82	1338.62	1284.62	1294.42	1312.22	1268.22	1268.22
474.399	10292	1041.76	1461.87	1393.4	1375.4	1355	1367.8	1303.4	1324.4	1358	1335.6	1314.8	1304	1283.6	1297	1314.6	1288.8	1287.8	1287.8
474.663	10273.1	1039.72	1463.61	1383.48	1386.28	1365.68	1351.48	1357.68	1328.48	1320.08	1360.88	1322.68	1345.88	1267.48	1295.88	1317.48	1340.68	1277.08	1277.08
474.928	10243.8	1037.2	1473.18	1399.98	1396.18	1363.78	1373.38	1391.18	1336.58	1375.38	1310.98	1326.58	1347.58	1298.98	1314.58	1319.58	1328.98	1316.18	1316.18
475.192	10164.9	1036.5	1466.66	1400.46	1375.66	1366.06	1349.46	1354.46	1353.26	1342.66	1344.26	1339.66	1345.66	1312.46	1266.26	1330.06	1340.46	1297.06	1297.06
475.457	10254.6	1034.3	1461.27	1375.94	1391.94	1391.54	1368.34	1380.14	1357.14	1331.94	1345.94	1333.74	1316.54	1306.74	1290.14	1336.14	1343.34	1330.74	1330.74
475.721	10234.6	1039.72	1475.66	1380.26	1414.86	1387.06	1354.86	1346.86	1344.46	1338.26	1315.46	1296.86	1329.66	1293.46	1346.26	1314.66	1319.06	1322.46	1322.46
475.985	10273.7	1029.88	1486.11	1401.78	1387.18	1377.98	1402.98	1346.18	1375.78	1362.98	1357.58	1367.98	1329.78	1309.58	1335.18	1328.98	1338.78	1338.38	1338.38
476.25	10338.7	1032.77	1497.79	1422.52	1391.32	1391.12	1419.52	1346.92	1367.72	1353.72	1351.12	1327.12	1323.32	1347.12	1312.12	1309.72	1297.52	1317.32	1317.32
476.514	10362.4	1034.52	1510.65	1434.38	1429.98	1402.58	1416.38	1393.58	1387.58	1385.58	1389.18	1368.38	1335.98	1345.58	1383.18	1360.58	1363.38	1344.38	1344.38
476.778	10455.6	1038.86	1518.83	1472.36	1450.36	1432.16	1439.76	1415.76	1406.16	1370.56	1403.36	1365.76	1318.36	1366.76	1356.96	1394.56	1367.96	1373.36	1373.36
477.042	10480.3	1031.96	1550.13	1485	1442.2	1489.2	1406	1389.2	1423.4	1405.2	1396	1407.2	1396	1400.2	1386	1365.4	1377.2	1362.8	1362.8
477.306	10628.3	1037.22	1585.21	1525.88	1469.68	1484.48	1464.28	1441.28	1433.28	1415.68	1451.48	1378.88	1408.68	1371.48	1418.68	1389.68	1401.68	1381.28	1381.28
477.57	10558.1	1035.28	1581.93	1504.26	1506.86	1431.26	1499.06	1394.16	1437.66	1419.86	1420.66	1384.86	1403.06	1404.46	1348.86	1399.66	1401.06	1360.86	1360.86
477.834	10622	1036.76	1578.5	1477.5	1493.5	1453.5	1475.9	1459.9	1441.7	1395.5	1393.3	1448.1	1450.9	1390.5	1401.5	1404.1	1382.9	1384.7	1384.7
478.098	10753.8	1036.02	1609.87	1534.4	1497.2	1503.8	1480.4	1471.8	1448.2	1440.6	1433.4	1470.4	1452.4	1443.2	1414.2	1418	1429.4	1411.8	1411.8
478.362	10730.5	1038.76	1600.69	1527.42	1495.02	1498.62	1464.42	1468.82	1494.62	1463.02	1414.82	1436.82	1466.42	1403.62	1442.62	1392.42	1411.02	1416.82	1416.82
478.626	11036.7	1032	1655	1576	1626.6	1575.4	1543.6	1508	1533.2	1525.4	1490.6	1474	1455.4	1476.4	1484	1440.6	1438	1413.6	1413.6
478.89	10958.1	1040.14	1654.96	1594.96	1576.16	1532.96	1533.16	1527.96	1530.96	1528.96	1500.56	1497.16	1485.96	1460.76	1500.76	1455.56	1434.96	1434.56	1434.56
479.153	11088.4	1036.18	1680.85	1608.38	1550.38	1569.78	1560.38	1541.18	1527.58	1531.38	1473.98	1522.58	1496.38	1509.58	1510.38	1487.78	1492.98	1463.58	1463.58
479.417	11133.5	1031.6	1705.69	1624.22	1586.42	1583.82	1580.22	1549.22	1530.62	1532.62	1485.22	1533.22	1520.82	1490.82	1512.22	1479.62	1506.02	1531.42	1531.42
479.681	11266.8	1027.24	1745.37	1651.64	1635.84	1590.64	1620.04	1559.24	1596.84	1565.44	1549.04	1517.44	1536.64	1482.84	1528.44	1519.24	1531.84	1511.64	1511.64
479.944	11401.1	1030.74	1754.58	1671.98	1660.18	1649.58	1639.38	1571.18	1582.38	1587.78	1568.98	1573.18	1575.78	1571.38	1554.18	1537.38	1496.38	1535.78	1535.78
480.208	11477.7	1043.06	1754.2	1670.4	1603.8	1603.2	1645.6	1610.8	1585.4	1625.8	1566.4	1543.8	1545.4	1572.4	1538.4	1570	1551.2	1522.2	1522.2
480.471	11500.4	1046	1809.42	1667.02	1691.22	1654.82	1622.62	1620.22	1616.62	1606.22	1603.42	1565.42	1568.62	1546.62	1574.62	1587.62	1548.02	1525.62	1525.62
480.734	11539.4	1035.7	1776.99	1730.92	1673.52	1634.92	1643.92	1601.72	1600.72	1582.12	1601.72	1579.92	1607.12	1555.12	1586.12	1567.72	1577.32	1511.52	1511.52
480.998	11647.5	1035.42	1813.43	1729.56	1708.76	1674.96	1674.56	1646.56	1631.96	1639.36	1608.36	1615.96	1609.56	1592.16	1591.56	1560.76	1593.96	1559.36	1559.36
481.261	11911.1	1037.56	1844.75	1747.02	1736.42	1724.22	1716.02	1688.02	1696.02	1675.42	1677.82	1644.82	1632.62	1637.22	1649.82	1586.62	1629.22	1606.02	1606.02
481.524	11923.7	1039.44	1886.83	1797.3	1775.3	1737.9	1705.5	1676.9	1689.7	1717.1	1696.1	1653.3	1613.9	1649.1	1677.1	1605.3	1627.9	1625.3	1625.3
481.787	11986.2	1035.16	1903.67	1843.4	1782.2	1753.2	1733.8	1735.8	1702.4	1715.8	1675.8	1652	1656.4	1718.6	1658.6	1640.2	1623.8	1662.8	1662.8
482.051	12246.3	1038.02	1963.55	1838.62	1821.62	1757.42	1766.82	1743.62	1756.82	1744.22	1719.22	1737.82	1722.02	1666.22	1716.62	1664.82	1698.82	1712.02	1712.02
482.314	12297	1033.98	1961.34	1882.54	1831.34	1795.14	1823.34	1783.14	1800.14	1756.54	1764.14	1747.74	1732.94	1689.94	1704.14	1714.34	1662.74	1650.54	1650.54
482.577	12406.5	1035.34	1991.45	1917.92	1855.52	1853.52	1859.32	1805.52	1805.92	1792.32	1763.72	1731.52	1730.52	1752.32	1697.72	1736.12	1743.52	1668.52	1668.52
482.84	12674.9	1031.52	2053.95	1916.55	1924.75	1901.75	1868.95	1852.95	1826.35	1831.55	1786.95	1785.95	1785.35	1787.95	1789.15	1772.15	1776.75	1761.55	1761.55
483.102	12501.2	1024.6	2033.1	1935.7	1868.3	1880.1	1869.5	1811.5	1811.7	1782.9	1785.9	1777.1	1756.1	1758.3	1760.9	1738.3	1783.3	1772.5	1772.5
483.365	12715.6	1034.64	2057.36	1915.16	1930.76	1913.96	1875.96	1831.16	1840.76	1842.36	1844.16	1809.56	1818.96	1809.16	1815.76	1793.16	1813.16	1750.56	1750.56
483.628	12905.9	1024.64	2089.7	1958.5	1944.9	1904.1	1891.1	1920.7	1913.7	1871.3	1891.5	1862.9	1859.9	1812.9	1834.5	1839.3	1789.5	1779.7	1779.7
483.891	12874	1039.72	2100.14	1997.34	1957.34	1946.74	1952.94	1898.94	1914.54	1904.94	1879.34	1869.14	1861.74	1816.54	1801.74	1803.94	1837.74	1788.94	1788.94
484.154	13190.5	1036.08	2187.23	2053.5	1994.7	2028.3	2010.3	1966.7	1975.9	1947.9	1921.7	1925.7	1925.7	1888.1	1913.3	1893.5	1890.5	1877.3	1877.3
484.416	13314.3	1028.78	2228.43	2131.56	2062.76	2018.56	2023.16	2015.16	1999.96	1974.56	1937.96	1953.76	1934.36	1890.96	1925.36	1918.76	1917.96	1939.96	1939.96
484.679	13283.3	1031.22	2227.95	2086.38	2073.58	2042.38	2028.38	1965.38	2016.78	1976.98	1953.58	1949.78	1900.38	1904.18	1912.18	1900.18	1898.38	1833.98	1833.98
484.941	13597.6	1035.12	2256.57	2160.84	2109.64	2086.84	2067.64	2055.84	2044.84	2055.84	2010.84	1993.84	1952.24	2006.44	1963.84	1921.44	1909.04	1920.64	1920.64
485.204	13614.5	1035.64	2319.34	2160.74	2130.34	2127.34	2065.14	2065.14	2052.54	2027.94	2077.54	2027.74	1982.94	1983.34	1982.14	1995.74	1988.74	1976.34	1976.34
485.466	13767.4	1030.28	2322.58	2182.18	2151.38	2107.18	2086.38	2087.98	2064.18	2083.58	2034.58	2030.18	2003.78	2015.18	2006.18	2012.58	2004.38	2013.38	2013.38
485.729	13726.4	1036.96	2325.98	2176.58	2182.78	2110.58	2074.98	2110.18	2059.38	2088.98	2053.78	2038.18	2020.78	1983.18	1992.78	2016.38	1991.38	1970.38	1970.38
485.991	13966	1014.42	2398.56	2276.16	2187.16	2151.56	2175.56	2131.36	2146.36	2115.16	2130.76	2136.96	2085.56	2035.76	2060.96	2086.56	2042.96	2066.36	2066.36
486.253	14150.9	1039.53	2438.77	2299.9	2256.8	2246.3	2232	2186.9	2173.4	2150.2	2157.1	2103.6	2101.2	2077.1	2063.4	2125.2	2063.8	2079.6	2079.6
486.516	14360.2	1049.12	2470.98	2328.18	2303.58	2269.98	2268.98	2217.98	2156.38	2173.18	2164.18	2162.78	2136.38	2114.78	2115.98	2122.98	2072.98	2103.78	2103.78
486.778	14360.1	1043.72	2493.85	2375.72	2325.32	2260.52	2244.32	2224.92	2173.52	2227.12	2159.12	2128.92	2148.92	2138.12	2120.52	2129.52	2118.92	2129.52	2129.52
487.04	14644.7	1032.58	2570.66	2369.66	2342.26	2323.86	2297.26	2288.66	2258.06	2203.26	2229.66	2187.06	2155.66	2187.26	2162.46	2130.26	2118.06	2106.66	2106.66
487.302	14709.7	1036.88	2562.34	2395.34	2363.04	2330.14	2317.54	2273.54	2249.54	2250.14	2281.54	2191.94	2186.34	2175.74	2167.94	2163.74	2205.34	2178.14	2178.14
487.564	14827.2	1029.65	2600.72	2409.92	2349.32	2330.32	2318.72	2304.72	2210.32	2286.72	2282.32	2232.12	2228.72	2197.52	2182.92	2234.92	2169.52	2164.72	2164.72
487.826	15072.3	1027.02	2643.91	2501.04	2414.24	2384.44	2336.44	2315.84	2333.44	2347.44	2330.24	2262.84	2252.24	2254.04	2234.34	2263.04	2251.64	2240.24	2240.24
488.088	15093.7	1033.16	2675.09	2489.82	2408.62	2386.42	2384.42	2363.02	2344.62	2310.42	2309.02	2302.02	2267.82	2284.82	2256.42	2216.22	2231.22	2218.42	2218.42
488.35	15289.4	1031.54	2713.89	2493.96	2497.36	2440.76	2417.96	2389.96	2379.76	2389.56	2316.96	2337.56	2304.36	2298.56	2300.96	2249.96	2250.96	2282.16	2282.16
488.612	15356	1040.82	2747.92	2523.32	2491.52	2485.52	2380.72	2399.92	2408.92	2371.32	2333.52	2363.32	2332.52	2327.12	2300.32	2318.92	2294.12	2246.12	2246.12
488.873	15637.7	1042.4	2803.26	2596.13	2556.93	2529.73	2491.43	2509.13	2475.73	2461.13	2429.73	2400.93	2382.33	2349.93	2406.53	2380.33	2335.93	2294.13	2294.13
489.135	15658.5	1038.04	2810.95	2630.48	2595.88	2521.08	2524.68	2444.08	2475.88	2478.88	2404.08	2449.28	2406.48	2381.48	2379.88	2354.08	2355.08	2331.48	2331.48
489.397	15902	1026	2875.93	2704.2	2617.2	2612.6	2548.2	2557.2	2555.8	2469.8	2480.2	2497.6	2461.2	2438.6	2398.8	2415.8	2382.2	2393.4	2393.4
489.658	16112.9	1034.72	2927.95	2739.22	2688.62	2652.02	2625.82	2557.42	2556.82	2542.62	2521.42	2482.82	2466.42	2466.02	2431.22	2442.82	2466.82	2441.82	2441.82
489.92	16315.7	1044.62	3018.01	2723.14	2710.54	2703.34	2681.14	2605.34	2605.94	2583.54	2571.34	2557.14	2539.14	2506.14	2490.94	2481.54	2463.74	2514.54	2514.54
490.181	16500.1	1039.68	3030.81	2827.14	2779.74	2732.74	2654.54	2648.14	2621.54	2593.74	2568.34	2567.14	2551.74	2552.74	2510.94	2510.74	2528.54	2526.94	2526.94
490.443	16623.8	1042.14	3039.32	2804.32	2785.12	2762.12	2696.72	2695.72	2664.92	2657.92	2659.32	2594.92	2588.12	2595.72	2572.52	2543.72	2531.12	2542.72	2542.72
490.704	16684	1035.52	3079.21	2805.08	2793.28	2768.48	2762.88	2702.88	2689.68	2674.48	2633.28	2656.68	2600.88	2631.28	2563.08	2567.28	2541.08	2580.68	2580.68
490.966	16896.7	1043.26	3123.79	2896.46	2875.26	2781.06	2724.06	2765.26	2727.66	2692.86	2717.66	2687.66	2634.06	2628.66	2613.66	2584.66	2588.06	2574.26	2574.26
491.227	17126.1	1034.4	3198.47	2966	2927.2	2874.6	2864.2	2799.2	2784	2735.2	2712.2	2708.2	2713.8	2692.2	2658.2	2664.2	2691	2569	2569
491.488	17251.7	1034.48	3247.53	3033.06	2906.26	2912.06	2825.46	2800.66	2821.86	2793.46	2772.46	2757.26	2722.86	2711.66	2706.66	2742.66	2684.86	2647.26	2647.26
491.749	17444.2	1032.84	3284.7	2993.7	2985.9	2936.3	2919.3	2871.7	2852.7	2805.1	2814.1	2759.5	2772.1	2739.3	2738.7	2748.5	2720.3	2723.1	2723.1
492.01	17616.9	1037.88	3297.75	3102.62	3042.82	2987.62	2923.62	2886.42	2895.22	2887.02	2844.42	2841.82	2801.82	2794.02	2755.62	2759.62	2773.82	2774.62	2774.62
492.271	17792.2	1032.83	3328.03	3123.16	3072.36	3027.76	2995.16	2987.36	2914.56	2900.96	2873.56	2896.56	2838.16	2834.56	2819.36	2763.76	2782.76	2767.96	2767.96
492.533	18010.4	1035.68	3406.99	3137.06	3114.06	3039.86	3018.66	3033.26	2958.86	2915.26	2949.06	2950.06	2877.46	2861.86	2867.26	2812.26	2814.06	2829.66	2829.66
492.793	18186.8	1033.6	3455.88	3172.48	3156.08	3075.88	3057.68	3012.28	3020.68	3006.28	2948.68	2939.48	2922.28	2892.08	2885.28	2844.48	2849.48	2844.28	2844.28
493.054	18333	1034	3523.87	3251.74	3147.94	3144.94	3116.34	3059.34	3007.14	2975.74	2950.54	2986.54	2941.14	2947.14	2954.34	2878.74	2896.54	2858.34	2858.34
493.315	18475.6	1032.5	3566.75	3321.42	3221.82	3164.62	3181.42	3108.22	3039.82	3076.22	2997.02	3026.62	2997.42	2968.62	2936.42	2883.62	2928.02	2888.82	2888.82
493.576	18755.4	1033.38	3613.49	3383.56	3237.96	3226.16	3206.56	3133.96	3124.36	3100.56	3031.16	3069.76	3027.96	2992.56	2975.36	2993.16	2968.56	2992.76	2992.76
493.837	18870.4	1037.44	3665.01	3380.34	3271.34	3237.94	3252.94	3202.34	3142.94	3132.74	3052.54	3097.54	3080.94	3057.54	3039.34	3018.74	3001.54	2975.54	2975.54
494.098	19082.7	1035.62	3724.98	3403.38	3336.78	3253.18	3292.38	3258.98	3242.78	3154.98	3131.78	3122.98	3123.18	3108.98	3047.38	3045.98	3026.58	2986.18	2986.18
494.358	19311.7	1032.72	3762.37	3485.5	3421.1	3370.7	3290.5	3291.7	3243.1	3267.3	3182.1	3203.1	3183.5	3116.5	3128.1	3096.7	3069.3	3100.7	3100.7
494.619	19488.5	1036.78	3828.87	3508.4	3475.6	3384.8	3395	3330.4	3347.8	3297.2	3274.4	3241.2	3192.4	3189.6	3184	3155	3186.6	3108	3108
494.879	19568.4	1038.72	3836.89	3568.46	3472.66	3409.06	3392.06	3384.86	3308.26	3265.66	3316.06	3255.66	3179.66	3223.26	3181.06	3156.46	3152.26	3148.06	3148.06
495.14	19827.8	1040.66	3932.72	3610.72	3553.52	3467.72	3445.72	3416.72	3385.72	3378.92	3328.72	3328.92	3291.92	3273.12	3270.32	3234.12	3235.92	3214.72	3214.72
495.4	20080.9	1034.48	4034.41	3720.28	3620.88	3552.48	3548.08	3499.88	3448.88	3420.08	3437.68	3389.68	3377.08	3343.08	3346.28	3282.68	3298.68	3273.68	3273.68
495.661	20109.8	1032.56	4030.68	3708.68	3666.88	3600.88	3519.48	3482.88	3469.68	3442.08	3392.28	3410.68	3370.48	3348.08	3316.28	3319.68	3324.08	3272.28	3272.28
495.921	20342.7	1041.66	4078.65	3714.32	3663.72	3624.32	3599.92	3535.92	3522.72	3482.92	3476.72	3394.52	3408.92	3434.72	3364.92	3344.92	3371.52	3305.52	3305.52
496.181	20488.9	1041.18	4142.28	3788.88	3748.08	3693.08	3683.08	3568.28	3601.48	3521.08	3471.48	3471.68	3500.08	3443.88	3441.48	3399.88	3399.68	3374.08	3374.08
496.442	20825.7	1045.46	4229.16	3892.56	3795.16	3777.16	3699.16	3685.16	3679.16	3632.16	3575.56	3556.16	3528.76	3544.36	3522.16	3493.76	3438.36	3413.16	3413.16
496.702	21008.7	1038.9	4297.01	3941.68	3856.88	3847.28	3752.88	3756.88	3683.68	3670.68	3617.48	3645.48	3579.68	3563.18	3556.48	3550.28	3489.48	3508.08	3508.08
496.962	21119.8	1035.2	4327.25	3978.98	3911.78	3846.38	3769.58	3747.38	3785.78	3711.78	3661.18	3662.18	3607.18	3559.18	3622.78	3585.18	3555.78	3503.58	3503.58
497.222	21356.8	1036.22	4396.71	4058.78	3944.58	3897.38	3854.38	3841.18	3827.38	3781.98	3728.18	3708.58	3709.58	3686.98	3644.98	3618.98	3585.38	3602.58	3602.58
497.482	21508.3	1037.94	4491.89	4106.56	4082.56	3988.56	3939.16	3896.96	3851.36	3839.36	3844.76	3769.56	3768.36	3728.96	3746.76	3661.76	3671.36	3624.56	3624.56
497.742	21586.8	1035.54	4532.71	4122.18	4020.98	3965.78	3971.38	3913.58	3837.48	3831.58	3813.78	3785.98	3790.58	3707.98	3742.38	3703.18	3659.98	3702.58	3702.58
498.002	21917.5	1038.02	4589.23	4240.36	4152.16	4098.96	4040.76	3988.36	3945.36	3863.96	3901.36	3869.76	3805.16	3809.36	3789.16	3778.56	3746.76	3783.96	3783.96
498.262	22165.7	1043.96	4681.96	4240.56	4174.16	4161.76	4105.76	4039.96	4012.76	3968.56	3941.96	3885.16	3904.96	3898.56	3861.56	3825.56	3794.76	3800.16	3800.16
498.522	22279	1044.02	4752.18	4359.78	4251.98	4184.78	4139.38	4114.78	4037.38	3982.78	3972.58	3967.58	3954.38	3936.18	3882.78	3827.18	3879.98	3841.38	3841.38
498.781	22443.3	1034.6	4789.31	4399.64	4279.44	4193.04	4169.84	4180.44	4093.64	4086.04	4057.24	4007.64	3987.84	3932.64	3924.84	3902.64	3893.84	3850.24	3850.24
499.041	22601.5	1036.18	4853.87	4390.54	4331.54	4261.14	4192.74	4174.74	4176.54	4081.94	4126.54	4013.34	3996.54	4033.14	3945.94	3919.34	3939.54	3923.74	3923.74
499.301	22925.4	1034.08	4975.91	4474.38	4406.78	4356.98	4260.58	4307.98	4198.78	4139.78	4133.58	4101.78	4083.38	4085.78	4055.78	4023.18	3978.38	4003.78	4003.78
499.56	23103.6	1031.08	4985.76	4536.36	4494.16	4364.36	4355.76	4285.96	4243.56	4220.76	4151.96	4182.96	4162.16	4139.96	4098.76	4037.16	4066.36	4026.76	4026.76
499.82	23135.8	1041.82	4997.65	4549.12	4471.12	4388.52	4321.32	4327.32	4301.32	4289.32	4194.62	4173.72	4211.52	4117.52	4173.32	4112.12	4050.52	4043.12	4043.12
500.079	23392.4	1026.62	5113.67	4639	4549.6	4526.4	4446	4374.6	4330.6	4364.4	4311.4	4239.8	4247	4252.4	4189.4	4143.8	4099.6	4138.8	4138.8
500.339	23650.3	1043.64	5176.66	4736.66	4630.06	4566.66	4549.46	4471.46	4399.46	4403.06	4396.86	4343.86	4315.86	4293.66	4238.26	4254.26	4172.46	4182.26	4182.26
500.598	23886.1	1034.54	5287.61	4843.94	4764.74	4656.54	4602.34	4541.94	4455.74	4464.34	4430.74	4385.14	4375.54	4316.34	4302.34	4265.34	4241.54	4238.34	4238.34
500.858	24003.8	1041.66	5327.58	4820.58	4727.38	4658.58	4640.78	4537.78	4554.98	4529.78	4472.38	4434.18	4425.18	4378.78	4309.78	4353.78	4363.98	4345.38	4345.38
501.117	24347.7	1035.08	5447.85	4900.38	4780.18	4741.38	4715.18	4590.58	4629.18	4604.38	4594.78	4487.58	4486.18	4445.18	4453.58	4439.38	4409.58	4405.98	4405.98
501.376	24540.9	1037.74	5486.12	4995.12	4872.92	4755.32	4756.92	4769.32	4648.92	4643.32	4615.12	4591.92	4562.52	4528.72	4469.92	4486.92	4424.52	4455.32	4455.32
501.635	24637.9	1032.54	5498.5	5004.9	4903.3	4864.7	4781.7	4723.3	4687.5	4690.7	4666.5	4584.7	4537.3	4532.1	4515.1	4501.9	4497.3	4474.1	4474.1
501.895	24783.7	1028.04	5591.49	5054.82	4973.82	4921.82	4853.62	4816.82	4776.42	4777.22	4667.62	4671.82	4644.02	4638.02	4623.62	4557.22	4520.42	4489.62	4489.62
502.154	24927.3	1037.02	5675.25	5154.38	5023.18	4993.98	4917.38	4865.38	4838.18	4794.38	4706.78	4734.58	4711.38	4680.58	4652.98	4577.98	4575.98	4595.38	4595.38
502.413	24991.6	1036.02	5739.73	5209.66	5132.46	5050.66	4974.46	4908.26	4857.06	4820.86	4737.26	4757.26	4710.46	4677.66	4673.86	4609.46	4606.66	4642.66	4642.66
502.672	25533.6	1046.16	5876.72	5246.32	5193.32	5133.52	5038.32	5006.52	4947.72	4929.32	4906.12	4863.32	4839.32	4793.12	4788.92	4763.52	4715.52	4740.52	4740.52
502.931	25639.9	1033.96	5907.07	5339.94	5235.94	5177.54	5130.54	5070.74	5047.74	5016.94	4915.94	4836.34	4870.74	4850.14	4787.14	4763.54	4734.54	4747.94	4747.94
503.189	25704.2	1045.38	5961.06	5472.46	5264.46	5237.46	5157.46	5077.66	5101.26	5050.66	4912.66	4957.86	4950.06	4865.06	4902.46	4790.66	4838.06	4838.86	4838.86
503.448	26019.6	1037.03	6045.65	5500.72	5314.72	5311.12	5249.12	5183.12	5094.12	5056.92	5041.92	5006.92	4993.52	4976.72	4942.72	4914.52	4922.92	4818.52	4818.52
503.707	26159.6	1041.48	6073.68	5477.48	5424.48	5321.08	5309.68	5206.28	5190.48	5150.48	5111.48	5071.88	5049.68	5000.58	4975.88	4945.48	4900.48	4903.88	4903.88
503.966	26426.6	1029.22	6215.05	5525.18	5516.18	5412.18	5321.78	5289.58	5264.18	5228.98	5170.98	5158.58	5110.18	5095.98	5099.98	5062.38	4974.38	4979.78	4979.78
504.224	26532.7	1036.84	6218.22	5657.22	5565.62	5442.42	5386.22	5301.82	5313.82	5232.22	5238.22	5168.02	5186.02	5185.82	5069.82	5083.82	5019.82	5021.62	5021.62
504.483	26813.8	1034.34	6355.24	5717.44	5681.64	5575.24	5488.64	5461.24	5420.04	5339.44	5330.44	5223.64	5237.84	5220.64	5219.04	5149.44	5068.44	5070.64	5070.64
504.742	26992.3	1027.04	6430.99	5842.46	5701.06	5607.66	5504.86	5550.26	5404.66	5414.66	5406.06	5374.66	5311.46	5320.66	5189.66	5219.86	5217.46	5192.66	5192.66
505	27224	1041.52	6527.65	5936.58	5739.18	5737.38	5649.58	5603.18	5484.78	5476.78	5426.18	5421.98	5398.78	5358.98	5341.58	5274.58	5300.98	5214.18	5214.18
505.259	27189.8	1044.36	6571	5920.8	5851	5719.6	5638.8	5571.8	5558.6	5510	5442.6	5426.6	5414.6	5362.2	5320.6	5328.2	5363	5275.8	5275.8
505.517	27360	1040.2	6654.35	5982.62	5911.02	5785.62	5730.42	5647.22	5582.82	5564.42	5585.42	5496.42	5460.42	5471.82	5412.62	5418.42	5332.22	5311.82	5311.82
505.775	27571.1	1041.38	6751.19	6087.52	5970.32	5876.32	5779.32	5709.12	5723.92	5627.32	5618.32	5606.12	5484.12	5506.32	5466.52	5422.92	5438.92	5347.52	5347.52
506.034	27700.5	1036.44	6814.4	6089.53	6029.33	5911.53	5837.93	5812.73	5728.73	5676.33	5638.13	5643.73	5616.53	5537.53	5489.33	5465.13	5501.53	5421.13	5421.13
506.292	27940.6	1027.14	6904.21	6135.34	6044.94	6013.74	5913.14	5897.14	5829.14	5742.74	5733.34	5775.94	5710.94	5666.14	5564.14	5580.14	5518.34	5452.34	5452.34
506.55	28132.5	1032.78	6996.52	6249.52	6170.92	6025.92	6015.12	5954.52	5917.72	5855.52	5830.32	5765.72	5730.12	5722.12	5723.72	5667.32	5633.52	5595.52	5595.52
506.808	28223.6	1039.28	7051.38	6341.18	6199.78	6128.78	6065.38	5995.78	5965.78	5901.98	5863.98	5794.18	5759.58	5708.58	5757.18	5724.98	5659.98	5623.78	5623.78
507.066	28487	1036.58	7143.39	6457.52	6281.92	6231.52	6119.72	6075.52	6056.72	5977.92	5902.92	5899.52	5874.72	5873.52	5823.92	5826.12	5744.12	5794.32	5794.32
507.324	28684.5	1027.38	7216.12	6485.52	6393.72	6260.32	6238.92	6131.32	6124.32	6057.52	6020.92	6019.32	5941.12	5891.32	5888.32	5834.32	5870.72	5791.52	5791.52
507.582	28904.4	1043.94	7291.91	6560.84	6481.24	6329.84	6226.04	6243.24	6185.04	6170.04	6122.04	6052.64	5992.84	5938.84	5899.44	5970.04	5933.44	5846.04	5846.04
507.84	29026	1044.42	7353.41	6637.28	6494.28	6385.68	6265.88	6325.08	6225.08	6135.48	6111.68	6036.48	6039.08	6013.68	5976.48	5991.88	5924.08	5895.48	5895.48
508.098	29361.5	1037.34	7462.63	6717.96	6578.56	6524.56	6452.36	6333.76	6340.36	6284.56	6216.76	6172.36	6098.96	6142.96	6021.36	6049.16	5993.56	6003.76	6003.76
508.356	29506	1032.74	7539.45	6757.18	6628.78	6590.98	6419.58	6367.58	6360.38	6326.58	6314.38	6181.38	6223.58	6128.18	6180.98	6109.18	6082.98	6050.38	6050.38
508.614	29514.2	1027.96	7567.03	6859.96	6706.76	6602.16	6512.36	6467.56	6414.96	6395.96	6395.76	6256.16	6243.96	6211.56	6256.96	6134.56	6111.76	6096.96	6096.96
508.871	30050	1040.22	7740.44	6912.64	6816.24	6741.24	6617.04	6633.84	6497.24	6440.84	6434.04	6384.44	6349.04	6342.04	6280.44	6262.04	6224.64	6247.44	6247.44
509.129	30253.7	1040.38	7789.67	7027.47	6808.27	6778.67	6725.07	6673.47	6524.87	6585.27	6469.87	6472.27	6359.47	6365.67	6274.47	6326.27	6300.27	6221.87	6221.87
509.387	30465.1	1038.9	7847.73	7005.06	6897.86	6905.86	6788.66	6677.26	6583.26	6600.66	6532.06	6519.86	6415.06	6438.66	6393.46	6415.86	6284.46	6313.26	6313.26
509.644	30688	1037.6	7948.95	7187.28	7011.68	6892.88	6886.08	6739.88	6666.88	6725.28	6600.68	6621.48	6584.48	6462.28	6474.48	6449.08	6421.08	6382.68	6382.68
509.902	30703.1	1039.18	8011.45	7189.92	7047.72	6988.92	6873.72	6823.92	6777.92	6752.72	6648.92	6655.72	6640.12	6539.12	6560.52	6492.12	6447.12	6389.12	6389.12
510.159	30959.6	1035.26	8121.03	7264.76	7137.16	7001.36	6981.36	6890.36	6822.96	6751.96	6728.56	6716.16	6721.96	6663.96	6601.96	6617.76	6524.16	6532.36	6532.36
510.417	31191.5	1036.5	8218.62	7432.22	7218.22	7107.22	7043.82	6997.02	6898.62	6870.22	6834.42	6785.02	6777.62	6710.02	6682.22	6657.02	6558.82	6602.02	6602.02
510.674	31248.4	1034.96	8274.09	7462.82	7254.42	7227.22	7097.42	6986.42	6939.22	6940.62	6849.22	6870.42	6765.02	6732.22	6738.22	6701.82	6673.62	6668.62	6668.62
510.931	31618	1045.74	8395.56	7591.36	7323.36	7291.96	7210.76	7122.96	7069.16	7105.96	6993.76	6966.36	6870.36	6892.16	6848.56	6793.56	6816.16	6725.56	6725.56
511.189	31697.1	1029.22	8445.37	7573.04	7434.64	7261.04	7230.04	7176.04	7144.64	7084.24	7091.84	6996.84	6975.04	6853.24	6895.44	6855.44	6819.84	6758.44	6758.44
511.446	31801.7	1035.05	8538.05	7637.12	7471.52	7427.72	7262.92	7235.12	7188.32	7126.52	7144.72	7106.32	7082.52	6945.12	6949.52	6925.72	6909.92	6858.52	6858.52
511.703	32021.3	1024.2	8608.46	7740.66	7536.66	7439.06	7402.86	7328.06	7233.66	7191.86	7163.66	7125.46	7043.26	7046.46	6981.46	6976.66	7050.86	6886.86	6886.86
511.96	32271.7	1039.12	8763.59	7791.26	7693.66	7527.26	7494.46	7416.46	7390.46	7292.66	7345.86	7240.46	7168.06	7150.06	7161.06	7076.86	7000.86	7048.26	7048.26
512.217	32259.5	1032.26	8780.37	7852.84	7779.64	7608.24	7498.04	7459.64	7446.64	7400.04	7431.04	7318.64	7209.64	7202.24	7224.24	7067.24	7131.24	7106.24	7106.24
512.474	32373.9	1046.52	8867.03	7971.36	7810.36	7637.76	7663.16	7527.16	7541.76	7469.76	7411.56	7322.96	7295.16	7290.36	7221.56	7180.56	7153.56	7123.36	7123.36
512.731	32480.9	1034.64	8954.36	8018.36	7893.96	7728.16	7728.56	7672.56	7514.36	7553.36	7430.76	7434.36	7412.96	7335.56	7328.76	7296.96	7217.96	7180.96	7180.96
512.988	32737.1	1039.86	9066.27	8161.94	7980.54	7878.14	7802.34	7740.34	7702.94	7585.14	7592.34	7559.54	7435.74	7467.54	7331.54	7394.74	7366.14	7309.74	7309.74
513.245	32883.3	1039.64	9156.81	8273.14	8052.34	7991.34	7856.34	7791.34	7763.14	7677.14	7600.14	7618.14	7490.54	7513.74	7385.34	7492.74	7444.14	7382.34	7382.34
513.502	33054.3	1034.78	9261.01	8359.94	8176.34	8022.74	7903.54	7913.74	7869.34	7776.54	7694.94	7656.74	7701.74	7634.34	7534.94	7554.34	7504.94	7472.14	7472.14
513.758	33082.4	1047.38	9374.15	8380.02	8184.22	8017.42	8046.22	7973.42	7900.82	7830.42	7772.82	7788.22	7685.22	7652.22	7656.62	7593.42	7555.02	7512.02	7512.02
514.015	33207.8	1046.88	9462.35	8454.02	8247.62	8141.82	8072.82	8014.42	8006.42	7917.02	7858.22	7795.62	7729.82	7752.82	7648.42	7654.82	7638.02	7583.82	7583.82
514.272	33461.4	1041.86	9558.83	8581.76	8322.76	8296.96	8158.96	8127.36	8105.16	8034.56	7924.56	7874.96	7862.56	7840.56	7763.56	7758.96	7699.96	7681.96	7681.96
514.528	33561.8	1036.86	9630.02	8663.49	8353.89	8323.69	8290.29	8159.09	8112.09	8069.49	7973.69	7912.69	7917.49	7875.89	7762.89	7797.49	7790.09	7804.69	7804.69
514.785	33859.7	1035.66	9769.15	8699.08	8526.08	8424.28	8396.88	8273.28	8294.08	8115.48	8169.88	8054.68	7993.88	7966.08	7939.68	7908.48	7899.28	7845.48	7845.48
515.041	34111.4	1035.1	9858.57	8796.1	8683.9	8530.7	8490.1	8363.5	8333.9	8234.3	8222.9	8192.9	8135.1	8028.9	8024.5	7971.3	7982.7	7956.3	7956.3
515.297	34327.8	1042.94	10003.2	8979.16	8806.96	8655.96	8535.56	8425.36	8429.16	8360.56	8242.16	8153.16	8248.76	8142.16	8093.36	8056.96	8045.36	8008.96	8008.96
515.554	34442.6	1036.82	10045.1	8992.62	8779.62	8660.62	8559.82	8524.82	8414.62	8368.62	8338.62	8290.02	8222.82	8208.82	8186.82	8116.62	8089.22	8028.02	8028.02
515.81	34792.2	1040.1	10169.2	9060.98	8868.78	8782.38	8713.98	8638.58	8556.38	8533.98	8466.18	8387.98	8290.98	8244.78	8279.98	8185.98	8168.58	8135.78	8135.78
516.066	34698.7	1040.56	10208	9133.38	8870.58	8806.58	8813.38	8694.18	8590.38	8511.78	8465.98	8392.98	8430.98	8354.78	8343.18	8247.78	8203.18	8254.78	8254.78
516.323	34987.7	1038.38	10303.9	9230.17	9026.57	8937.17	8807.37	8819.37	8730.97	8632.37	8549.77	8503.77	8422.37	8390.77	8421.37	8400.37	8337.77	8403.17	8403.17
516.579	34973.7	1031	10359.6	9249.6	9078.6	8996.2	8906.8	8738	8668.8	8639.4	8644.4	8608	8566.2	8455	8488	8448.8	8443.8	8322	8322
516.835	35258.9	1036.12	10541.4	9451.1	9127.1	9145.7	9059.9	9014.3	8933.3	8791.1	8764.5	8693.7	8605.7	8684.1	8514.7	8619.5	8436.5	8482.7	8482.7
517.091	35329.5	1056.62	10606	9429.9	9269.7	9171.1	9090.5	8973.9	8897.7	8890.3	8824.5	8763.9	8696.1	8682.5	8606.1	8622.1	8552.9	8500.5	8500.5
517.347	35771.2	1032.73	10771.7	9596.14	9377.04	9337.34	9109.54	9090.74	8956.94	8956.94	9007.94	8906.14	8786.14	8778.54	8758.34	8722.14	8582.94	8639.14	8639.14
517.603	35720.3	1041.62	10762	9586.9	9447.7	9277.7	9152.5	9126.1	9052.5	9013.1	8992.5	8868.3	8782.3	8776.7	8814.1	8703.5	8678.3	8618.5	8618.5
517.859	35962.5	1033.8	10922.1	9751.16	9459.36	9366.36	9270.76	9256.56	9153.76	9106.36	9010.96	8996.76	8912.96	8946.36	8885.76	8883.36	8782.96	8724.76	8724.76
518.114	36057.5	1034.34	10955	9782.34	9540.54	9464.14	9344.94	9347.94	9186.74	9100.94	9137.74	9022.94	9002.34	8985.34	8914.14	8921.54	8841.94	8836.34	8836.34
518.37	36232.6	1040.34	11104.9	9870.8	9617	9483.4	9447.2	9325	9269.2	9193.2	9170.8	9157.4	9106.8	9092.6	9007.4	8937.6	8988.2	8869.6	8869.6
518.626	36366.4	1036.2	11209.5	9911.08	9731.48	9583.28	9561.08	9494.88	9399.68	9239.28	9267.88	9236.08	9161.88	9131.88	9129.28	9029.88	9097.68	9004.48	9004.48
518.882	36447.7	1042.58	11293.1	10009.9	9855.72	9696.52	9596.72	9502.72	9433.32	9420.92	9353.12	9348.72	9288.72	9245.72	9191.92	9158.12	9116.32	9042.12	9042.12
519.137	36813.2	1037.3	11470.2	10152.4	9968.22	9837.02	9767.42	9635.82	9601.22	9495.42	9478.02	9463.22	9322.02	9288.62	9318.42	9288.22	9292.82	9230.62	9230.62
519.393	36782.6	1042.56	11442.8	10219.6	9956.22	9870.82	9780.82	9676.02	9617.02	9633.42	9507.22	9481.82	9431.62	9380.62	9393.22	9280.42	9228.82	9240.62	9240.62
519.648	37138.7	1054.44	11610.6	10414.5	10107.5	9979.48	9912.08	9869.68	9803.08	9679.48	9626.28	9599.08	9590.48	9504.48	9394.68	9487.88	9328.88	9371.08	9371.08
519.904	37291.7	1038.94	11724.2	10430.3	10171.9	10043.7	9998.1	9893.1	9823.7	9790.7	9786.7	9708.9	9653.7	9569.9	9523.7	9571.9	9431.3	9466.9	9466.9
520.159	37357.3	1036.96	11726.5	10479.9	10190.7	10090.5	9998.12	9914.32	9915.72	9799.52	9773.92	9695.92	9570.72	9632.72	9512.92	9557.72	9484.32	9489.52	9489.52
520.415	37532.2	1034.96	11818.5	10589.1	10316.9	10213.1	10085.9	10070.9	9936.94	9922.14	9824.54	9870.74	9773.94	9743.54	9687.74	9609.14	9587.94	9558.74	9558.74
520.67	37727.1	1044.93	11998	10652	10463.8	10273	10193.4	10088.4	9988.82	9980.42	9914.22	9937.82	9849.02	9756.42	9775.42	9698.02	9670.02	9615.62	9615.62
520.925	37913.3	1039.5	12057.3	10832.4	10549.4	10340.2	10346.4	10253.4	10156	10106.2	9987	9957.2	9911.2	9868.8	9870	9817	9823.4	9761.4	9761.4
521.18	37966.9	1039.86	12204.1	10772.5	10564.5	10513.3	10329.5	10278.3	10221.7	10163.5	10093.5	10040.5	9979.58	9943.68	9843.08	9919.08	9799.68	9775.08	9775.08
521.436	38013.2	1043.18	12233.8	10833.6	10624.6	10519.4	10433	10292	10286.8	10203.6	10130.8	10109.8	10012.6	10042	9961.18	9929.38	9864.58	9881.18	9881.18
521.691	38430.3	1041.18	12365.9	11036.7	10776.5	10621.1	10560.1	10509.7	10385.3	10266.5	10286.7	10267.5	10201.3	10152.1	10078.1	9983.46	10005.1	9915.06	9915.06
521.946	38336.7	1040.8	12399.5	11043.1	10809.7	10701.7	10603.3	10592.7	10402.5	10305.7	10414.9	10246.1	10266.5	10189.1	10181.3	10098.3	10038.7	10037.9	10037.9
522.201	38426.4	1047.2	12491.1	11124.1	10881.5	10688.9	10665.7	10513.9	10444.7	10385.5	10366.5	10384.9	10341.1	10273.6	10146.1	10075.9	10186.9	10026.3	10026.3
522.456	38655.9	1038.66	12626.1	11232.1	10972.1	10904.7	10773.9	10667.9	10602.9	10518.7	10442.3	10390.7	10421.9	10292.1	10310.7	10265.3	10297.1	10236.7	10236.7
522.71	38730.8	1040.84	12695.5	11312.7	10941.3	10981.7	10798.5	10740.5	10711.7	10582.9	10511.1	10485.9	10439.1	10393.5	10342.9	10333.5	10366.1	10268.1	10268.1
522.965	38862.8	1041.82	12815.6	11397.7	11179.3	11026.5	10830.7	10824.1	10804.3	10664.3	10667.5	10543.3	10608.3	10547.3	10534.7	10427.7	10365.3	10390.9	10390.9
523.22	38956.3	1044.28	12881.2	11481.2	11263.2	11097.4	10993.4	10913.8	10825.6	10734.8	10718.8	10672.8	10596.4	10556.2	10542.8	10563.2	10475.2	10447.4	10447.4
523.475	39185.2	1044.54	13009	11599.2	11361.6	11190.4	11056.2	11016.2	10981.2	10867	10831.8	10774	10744	10753.8	10653.8	10639.4	10576	10563.2	10563.2
523.729	39233.8	1041.34	13050.2	11669.8	11404.4	11263.6	11199	11121.4	11041.2	11021.6	10943.8	10849	10728.4	10819.4	10738.8	10690.8	10636.2	10645.2	10645.2
523.984	39289.1	1028.34	13214.5	11779.6	11577.2	11393.2	11318.8	11210.6	11033.6	11069.8	10977.2	10941	10903.4	10865.4	10706.8	10827.2	10693.8	10735	10735
524.239	39541.3	1044.46	13376.8	11817.5	11636.3	11437.7	11385.1	11296.7	11163.9	11207.7	11129.3	11039.7	11010.5	10929.3	10960.5	10764.7	10748.7	10809.1	10809.1
524.493	39733.1	1041.94	13439.2	11911.2	11623.8	11551.4	11451.8	11356.4	11299.8	11179.2	11212.4	11085	10987.8	11050.8	11003.6	10953.4	10853	10862.2	10862.2
524.748	39816.8	1033.98	13585.4	12066.4	11829.4	11646.2	11567.8	11453.8	11377	11394.2	11301.4	11230.2	11227.8	11157.8	10960.8	10978.6	10998.2	10951.8	10951.8
525.002	39788.8	1040.78	13618	12006.6	11789.1	11662.1	11604.7	11456.7	11454.5	11461.5	11297.1	11285.1	11129.1	11204.7	11114.9	11057.1	11039.3	10908.1	10908.1
525.256	40108.6	1043.06	13777.5	12182.9	11961.1	11843.1	11666.3	11586.7	11517.5	11593.7	11431.5	11415.9	11314.5	11310.9	11279.5	11141.5	11131.1	11075.3	11075.3
525.511	40198.2	1041.6	13864.1	12307	12148.8	11898.6	11733	11736.6	11542	11542.4	11522	11359.6	11318	11335.4	11279	11219.2	11243.6	11175.2	11175.2
525.765	40275.7	1041.42	13927.1	12345.7	12107.5	11878.7	11808.1	11668.5	11688.3	11529.9	11508.3	11551.3	11422.7	11390.3	11311.9	11298.1	11380.1	11184.7	11184.7
526.019	40589.4	1036.2	14019.2	12395.2	12149.2	12041.4	12012	11894	11867.8	11680.6	11602.8	11632	11595.6	11481.6	11445.2	11453.2	11361.8	11324.2	11324.2
526.273	40357.7	1040.66	14054.9	12456.7	12160.9	12033.1	12039.1	11831.3	11894.3	11792.7	11635.3	11670.7	11455.1	11459.7	11423.3	11440.9	11363.9	11338.3	11338.3
526.527	40559.7	1033.12	14209.6	12525.2	12286.2	12141.6	12082.4	11956.4	11885	11824.4	11779.4	11719.6	11705.8	11598.8	11602.2	11614.8	11504	11398	11398
526.781	40633.8	1039.98	14294.2	12675.1	12414.5	12244.3	12138.9	11996.9	11928.7	11829.7	11827.5	11862.9	11688.5	11645.7	11701.9	11580.9	11544.5	11528.1	11528.1
527.035	40725.8	1024.36	14352.8	12675.6	12472.4	12316.4	12129.4	12124	12003	12005.8	11864	11827	11757.8	11710.8	11707.6	11601.8	11576.4	11561.4	11561.4
527.289	40663.5	1035.06	14334.4	12687.6	12420.2	12222.2	12119.2	12080.8	12016.4	11954	12005.2	11840.4	11788.8	11805.6	11699	11652.2	11611.4	11573.8	11573.8
527.543	40828.7	1034.29	14432.7	12811.1	12583.9	12424.5	12299.7	12233.9	12096.5	12104.9	12037.3	12000.9	11982.1	11891.5	11862.9	11784.3	11800.1	11689.7	11689.7
527.797	41023.2	1043.04	14543.5	12884.8	12713.2	12512.2	12395	12342.8	12189.8	12188.8	12150.4	12038	12011.4	11923.2	11962.2	11877.2	11845	11813.6	11813.6
528.051	41046	1038.62	14673.7	12990.6	12760.4	12594	12438.8	12382	12315.6	12218.4	12162.8	12112.4	12083.4	12007	11980.6	11944	11861	11863	11863
528.305	41206.4	1051.12	14748.1	13051.9	12835.9	12732.5	12535.5	12380.9	12296.9	12249.7	12256.3	12252.3	12235.7	12076.9	12111.1	11967.5	12032.3	11964.7	11964.7
528.558	40659.7	1032.36	14629.3	12945.7	12650.3	12530.5	12464.9	12378.9	12272.9	12195.5	12128.7	12098.9	12002.3	12015.7	11978.3	11927.3	11921.5	11875.7	11875.7
528.812	41453.8	1036.6	14976.2	13273.1	13078.3	12805.3	12798.7	12632.1	12586.7	12533.5	12404.9	12434.3	12371.9	12262.1	12254.7	12166.1	12190.5	12085.5	12085.5
529.065	41689.8	1037.15	15095.6	13349.8	13145.2	12848.6	12798.8	12800.4	12671.4	12718.2	12642.8	12525.2	12438.4	12355.2	12417.8	12321.6	12312.8	12216	12216
529.319	41585.5	1037.86	15098.4	13365.5	13081.7	13056.1	12820.7	12709.5	12664.1	12593.7	12567.5	12533.1	12448.9	12364.9	12422.3	12356.1	12315.5	12176.5	12176.5
529.572	41826.3	1035.94	15238.2	13585.8	13360	13030	12979.6	12832.8	12828.2	12832	12621.6	12656.4	12602.4	12499.6	12478.2	12421	12483.4	12380.2	12380.2
529.826	41765.8	1038.5	15346.9	13631.6	13355.2	13159.4	13080.8	12929.2	12903.4	12761.2	12671.6	12717.4	12589.8	12645.6	12552.2	12407.2	12426.8	12324	12324
530.079	42033.5	1044.36	15510	13707.8	13438.2	13367	13180.6	13036.4	12996.8	12994.4	12879.6	12802.6	12735.4	12687.2	12695.4	12615.8	12517	12511.4	12511.4
530.333	41874.1	1042.58	15472	13752.1	13509.7	13332.3	13224.3	13106.9	12985.3	12975.3	12953.6	12781.9	12834.7	12750.9	12701.7	12627.1	12566.9	12536.7	12536.7
530.586	41994.8	1031.24	15610.7	13842.4	13585.8	13356	13327.4	13212.2	13112	12997.8	13017.8	12980.2	12898.8	12810.4	12741.8	12681.6	12712.4	12688.4	12688.4
530.839	42141.6	1046.58	15690.8	13950.4	13576.2	13474.2	13289.2	13229.5	13316.4	13135	13112.4	13003.8	13026	12939	12794.4	12778.2	12816.4	12818.8	12818.8
531.092	42277.1	1035.56	15773.4	14036.7	13645.7	13624.5	13476.9	13402.1	13302.1	13250.7	13152.7	13110.9	13175.9	13067.4	12955.5	12917.1	12938.5	12900.7	12900.7
531.345	41647.9	1034.48	15643.4	13907.9	13606.1	13469.3	13273.9	13203.7	13204.5	13054.7	13043.3	12980.9	12903.1	12847.3	12816.3	12789.5	12713.7	12743.3	12743.3
531.598	42383	1039.34	16019.3	14148	13891.2	13727.4	13675.6	13463.8	13523.4	13355.6	13291.8	13254.8	13285.2	13190.6	13112	13047.6	13064.8	13013.8	13013.8
531.851	42361.1	1040.76	16073.7	14254.9	13910.7	13798.7	13681.3	13579.1	13575.9	13467.7	13427.1	13375.3	13276.3	13139.1	13168.1	13195.3	13119.5	13113.1	13113.1
532.104	42418.8	1033.62	16175.6	14318.4	14048.6	13867.2	13709.6	13640.6	13656.6	13493.6	13490.2	13345.8	13331.6	13337.6	13330	13286.6	13158.4	13163.6	13163.6
532.357	42388.6	1033.5	16223.2	14407.5	14066.7	13889.1	13761.7	13818.7	13574.7	13591.3	13463.5	13359.9	13331.7	13421.1	13367.5	13312.1	13271.5	13203.7	13203.7
532.61	42521.7	1044.38	16346.4	14583.6	14352.2	14030	13907.2	13818	13793	13665.8	13632.8	13550.6	13574.2	13551.8	13502.6	13407.6	13339.4	13368.2	13368.2
532.863	42514.8	1034.36	16495.5	14522.1	14304.7	14093.3	13984.3	13888.1	13841.7	13703.9	13670.9	13642.1	13491.3	13516.9	13524.7	13521.5	13493.3	13414.1	13414.1
533.115	42680.2	1035.58	16562.9	14639.1	14375.5	14335.5	14096.3	14012.1	13961.3	13800.9	13795.5	13741.7	13731.7	13771.9	13635.1	13549.1	13548.5	13555.5	13555.5
533.368	42750.2	1039.3	16698	14831.3	14366.3	14349.3	14197.9	14084.5	14031.5	13912.9	13845.1	13838.9	13726.9	13797.7	13683.5	13629.7	13645.7	13571.5	13571.5
533.621	42800.9	1040.6	16795.9	14925.8	14546.8	14399	14322.4	14251	14219.4	14129.2	14065.4	13982.2	13936.6	13885.6	13892.6	13797.6	13784.4	13699.6	13699.6
533.873	42888.8	1031.94	16839.6	14989.8	14636.2	14500.8	14378	14238.2	14207.6	14279.4	14093.8	14121.8	14049.6	13953.2	13873.6	13894.8	13794.6	13816	13816
534.126	42862.9	1045.92	16936.9	15070.2	14736	14613.4	14477.4	14379.2	14321.2	14371.8	14124.8	14161.8	14091.4	14009.6	13970.4	13889.2	13835	13767.8	13767.8
534.378	43062.9	1038.14	17116.8	15195	14804.2	14728.8	14492.6	14418.4	14339	14333.8	14323.2	14212.8	14124.2	14112.2	14160.4	13933	13981.8	13880	13880
534.631	43087.4	1038.42	17123.3	15260.7	14928.5	14687.7	14646.9	14609.1	14400.8	14373.9	14322.7	14361.5	14226.1	14178.1	14170.7	14119.9	14039.7	14065.1	14065.1
534.883	43124.3	1037.12	17210.1	15384.2	14926.8	14755.2	14688.2	14697	14603.4	14456.8	14446.8	14398	14330	14272.4	14163	14286.3	14105.8	14160.2	14160.2
535.135	43267.9	1046.86	17385.6	15420	15150.8	14865.2	14814	14753.2	14614.8	14534.2	14567.6	14404	14429.4	14361.2	14357	14335.4	14254.8	14297.4	14297.4
535.388	43214.9	1035.82	17387.3	15416.4	15084.2	14920.8	14804.8	14673.8	14646	14530.6	14588	14421.6	14411.2	14372.6	14377	14368.2	14256.6	14254.4	14254.4
535.64	43320.5	1034.34	17467.7	15477.6	15190.4	15079	14937.4	14812.2	14702.2	14675.2	14596.2	14535.4	14551.8	14382	14432	14384	14301.2	14294.2	14294.2
535.892	43425.3	1034.8	17608.8	15642.8	15220.4	15087.4	14995.6	14926.6	14768.2	14801.2	14722.2	14654.2	14584.6	14507.4	14574.2	14451.4	14449.8	14433.2	14433.2
536.144	43721.3	1027.22	17717.2	15838.7	15535.3	15297.9	15231.9	15091.3	15033.5	14918.4	14864.1	14759.9	14778.5	14736.4	14536.9	14720.3	14642.1	14589.9	14589.9
536.396	43855.5	1041.52	17813.9	15914.1	15496.1	15331.1	15258.1	15105.5	15157.9	15080.9	14984.1	14862.1	14958.3	14852.5	14839.5	14731.7	14737.9	14633.9	14633.9
536.648	43923.8	1038.32	17921.1	15967.5	15658.6	15471.4	15373.4	15309	15183	15124.4	15057	15017	14959.8	14987.4	14914.2	14890.6	14853.6	14716.6	14716.6
536.9	43915.8	1036.28	17989.7	16132.6	15618.6	15534.8	15459.2	15341	15174.8	15146.8	15127	15075.6	15052.2	14967	14942.4	14904.8	14817.8	14773.6	14773.6
537.152	44201.7	1044.28	18225.2	16213.1	15795.6	15700	15489.6	15500.8	15402.4	15347	15257	15270.4	15165.1	15097.4	15158.2	15048.8	15041.4	14900	14900
537.404	44134.6	1045.02	18242.2	16189.7	15866.7	15727.9	15554.9	15418.7	15406.3	15335.1	15255.3	15280.9	15193.5	15188.5	15164.7	15065.1	15124.3	14946.7	14946.7
537.655	44281.6	1035.76	18347.8	16360.9	15988.5	15769.9	15646.1	15604.5	15534.1	15414.1	15351.9	15341.1	15252.3	15355.5	15141.3	15109.9	15110.7	14993.3	14993.3
537.907	44547.1	1036.3	18473.4	16394.6	16093.6	16037.4	15697	15760.3	15663.8	15597.8	15466.6	15391.8	15414	15332.8	15361	15286.4	15269.2	15144	15144
538.159	44627.5	1038.1	18565.8	16551.7	16139.5	15957.9	15833.3	15819.1	15670.7	15686.7	15623.3	15554.7	15462.9	15462.5	15509.7	15351.1	15328.1	15272.9	15272.9
538.411	44663.3	1039.06	18604.9	16672.6	16277.8	16020.2	15939.2	15869	15764.2	15756.2	15622.4	15566	15566.4	15373.2	15471.8	15418.8	15358.6	15353.2	15353.2
538.662	44760.4	1035.28	18772.7	16677.9	16325.5	16188.5	15971.7	15937.1	15793.3	15728.5	15736.5	15663.7	15659.3	15644.3	15555.7	15385.9	15442.5	15381.7	15381.7
538.914	45054.8	1032.96	18955.5	16793.4	16447.4	16358.4	16182.6	16033.4	16074.4	15946.8	15880	15794.4	15817.2	15847.4	15656.4	15640.6	15599	15544.8	15544.8
539.165	44868.8	1031.14	18930	16897.5	16469.7	16301.9	16188.1	16120.7	16156.5	16051.1	15887.5	15828.3	15867.1	15756.1	15841.9	15750.5	15654.5	15618.5	15618.5
539.416	45150.2	1037.84	19107.6	17080	16672.2	16484.6	16395.2	16190	16255	16106.4	16109.5	16098	16023.7	15922	15939	15830.6	15807.2	15717.6	15717.6
539.668	45386.8	1043.76	19298.8	17221.7	16794.5	16640.5	16435.9	16388.9	16288.5	16270.3	16197.3	16161.1	16065.1	16118.9	16072.3	15932.9	15981.9	15844.7	15844.7
539.919	45233.8	1029.22	19317.1	17173.1	16809.3	16714.1	16548.9	16347.7	16320.1	16276.1	16252.3	16195.7	16143.9	16038.3	15950.5	16036.9	16013.9	15889.3	15889.3
540.17	45387.8	1032.42	19415.2	17222	16857.2	16748.6	16678.4	16499.2	16482.6	16375.6	16304.2	16333.2	16236.8	16193	16189	15996	16040.8	16011.2	16011.2
540.422	45478.9	1040.72	19512.2	17456.9	16921.1	16782.7	16702.7	16623.7	16602.9	16427.7	16466.5	16384.7	16359.5	16176.1	16190.9	16182.5	16207.3	16118.9	16118.9
540.673	45390.8	1036.08	19546.7	17634.1	17107.3	16962.3	16843.9	16695.9	16614.7	16469.5	16486.9	16447.1	16379.1	16337.7	16294.9	16272.9	16163.7	16178.7	16178.7
540.924	45646.3	1039.16	19808.8	17636.2	17313	17055.6	16976.8	16880.8	16832.4	16765.4	16684.6	16582	16542	16596.8	16472.2	16332.4	16388.2	16480.4	16480.4
541.175	45830.7	1036.4	19914.5	17803.3	17426.5	17216.3	17150.5	16943	16873.1	16816.1	16893.7	16797.3	16717.3	16675.9	16563.7	16560.1	16533.7	16448.5	16448.5
541.426	45898.4	1044.48	20065.7	17867.1	17478.7	17280.1	17217.5	17070.9	16999.5	16958.5	16906.1	16786.7	16760.1	16698.7	16754.3	16659.3	16572.1	16583.5	16583.5
541.677	46067.6	1037.62	20112.4	18048.3	17671.5	17486.3	17248.1	17150.9	17199.5	17059.7	17028.5	16936.2	16861.1	16879	16746.1	16755.5	16688.7	16854.7	16854.7
541.928	46112.1	1051.74	20230.1	17996	17667.9	17532.3	17337.9	17259.3	17247.3	17184.5	17069.7	17011.7	17063.3	16962.9	16962.5	16816.7	16797.3	16754.3	16754.3
542.179	45996.1	1038.96	20284	18068	17773.2	17497.8	17368.4	17349	17208.4	17198.4	17077.8	16979.8	17009	17036.8	16928.6	16934.2	16805.4	16860.2	16860.2
542.429	46287.9	1038.54	20407.7	18115.7	17863.3	17628.9	17518.9	17403.5	17408.3	17252.9	17270.3	17126.7	17149.7	17189.5	17046	17124.5	17063.5	16938.5	16938.5
542.68	46432.8	1042.86	20545	18381.8	17972.2	17784.2	17653	17604.1	17473.4	17503.2	17410.8	17322.4	17355.4	17370.6	17201.4	17160.8	17141.2	17121.6	17121.6
542.931	46710.3	1033.07	20654.1	18489.9	18008.9	17912.7	17837.7	17749.7	17616.2	17501.5	17409.3	17535.7	17452.9	17385.9	17310.1	17328.7	17255.5	17189.9	17189.9
543.181	46918.8	1034.72	20801.3	18578.2	18197.4	18016	17923.4	17935.4	17757.8	17631.8	17694.2	17581.6	17485.5	17536.8	17481	17317.6	17375	17368.8	17368.8
543.432	46821.7	1040.04	20842.9	18689.9	18285.5	18110.9	18073.9	17885.5	17734.3	17661.3	17719.3	17658.4	17511.3	17587.9	17557.7	17480.1	17396.1	17426.3	17426.3
543.682	47045.7	1035.32	21110.5	18936.6	18510.8	18281.2	18192.2	17904.4	17981.4	17836.2	17860.8	17846	17850.2	17775.4	17794.8	17683.4	17639.6	17656.8	17656.8
543.933	46995.2	1044	21159.8	18910.9	18511.5	18353.5	18263.1	18134.1	18008	18080.1	17944.7	17895.5	17877.1	17822.7	17810.5	17810.3	17843.9	17702.3	17702.3
544.183	47266.7	1040.98	21344.2	19156.8	18809.8	18583.6	18411.1	18338.2	18166	18142.9	18124.2	18139.8	17987.6	17972.7	17994.2	17880.4	17864.8	17885.8	17885.8
544.434	47597.5	1034.44	21499.9	19253.8	18952.8	18689.6	18533.8	18408.7	18391.6	18301.2	18303	18202.6	18104.4	18124.8	18055	18052	18052.7	17981	17981
544.684	47749.9	1033.72	21628.9	19365.4	18904.4	18808.3	18585.2	18594.4	18590.6	18398.2	18396.8	18347.6	18195	18185.6	18191.2	18153.4	18093.4	18197.2	18197.2
544.934	47742.2	1030.48	21722.7	19377.9	19087.6	18777.1	18716.1	18650.9	18548.7	18425.7	18385.8	18382.5	18279.5	18239.7	18214.2	18187.5	18137.7	18137.9	18137.9
545.184	47882.3	1030.7	21800	19412.7	19119.2	18898.6	18847.8	18728	18572.2	18496	18449.4	18436.4	18382.8	18316.8	18322.8	18256.4	18203.4	18231	18231
545.435	48218.3	1040.7	21999.6	19839.6	19218.7	19118.3	18883.5	18813.7	18722.3	18753.9	18586.7	18661.5	18586.1	18569.3	18552.1	18420.7	18423.3	18401.6	18401.6
545.685	48026.7	1042.9	21977.8	19723.6	19322.5	19103.1	18964.8	18970.1	18829.3	18755.7	18763.3	18655.3	18548.7	18665.3	18541.3	18489	18430.5	18390.3	18390.3
545.935	48159.4	1038.74	22139.5	19820.2	19419.1	19184.9	19067.5	19101.4	18911.6	18828.8	18827.4	18733.2	18647.2	18669	18636.5	18658.2	18599.2	18480.4	18480.4
546.185	48525.2	1040.58	22403.9	19970.8	19631.8	19432.4	19343.4	19174.6	19116.6	19072.2	18988	18953.2	18920.2	18864	18829.8	18767.7	18804.2	18809.8	18809.8
546.435	48429	1036	22383.6	20075.3	19609.3	19405.6	19307.8	19170.3	19254.9	19181.7	19077.1	19073.7	18949.9	18906.5	18872.9	18784.2	18839.9	18736.3	18736.3
546.684	48898.1	1036.46	22659.3	20315.2	19944.9	19716.2	19469.6	19452.5	19414.4	19277	19218.4	19167.2	19183.2	19156	19057	19014.4	19016.4	18939.4	18939.4
546.934	48624.6	1043.22	22550.1	20243.2	19848.4	19704.8	19498	19474.8	19449.2	19245	19295.2	19205.6	19196.6	19075.4	19028.4	19013.8	19030.4	18932.1	18932.1
547.184	48798.5	1039.92	22762	20468.1	20022.7	19760.5	19633.9	19707.2	19553.1	19475.9	19477.5	19239.7	19300.1	19229.3	19142.7	19187.9	19181.1	19145.3	19145.3
547.434	48973.1	1031.54	22932.4	20545.4	20086.2	19916.2	19788.8	19784	19751.6	19499.2	19529.8	19485.8	19372.8	19353	19421.2	19450.4	19224.4	19349.6	19349.6
547.683	49233.5	1035.78	23160.6	20769.5	20360.3	20188.3	20106.3	19942	19883.1	19834.9	19719.7	19657.5	19657.5	19551.6	19634.9	19494.5	19445.5	19376.4	19376.4
547.933	49356.4	1041.6	23357.8	20831.7	20552.5	20344.7	20132.7	20078.3	19910.1	19796.5	19847.7	19768.3	19794.8	19693.7	19601.1	19573.7	19576.7	19609.5	19609.5
548.183	49465.2	1045.22	23485.3	21068.5	20590.1	20448.9	20255.4	20192.1	20067.3	20098.3	19938.9	19953.1	19952.1	19881.5	19756	19872.5	19749.7	19651.8	19651.8
548.432	49185.4	1034.58	23393.2	21131.2	20624.7	20422.7	20270.2	20270.4	20086.2	20156.1	19914	19996	19886.1	19811.5	19774.7	19802.3	19802.7	19806.5	19806.5
548.682	49482.9	1038.22	23601.6	21294.9	20842.3	20600	20435.5	20307.1	20273.5	20385.7	20203.3	20183.7	20011.7	19998.3	20131.2	20010.8	19968.8	19874.1	19874.1
548.931	49576.2	1038.58	23748.6	21359.1	20978.6	20837.4	20648.8	20513.2	20379.2	20314	20264.4	20265.6	20198.4	20141.8	20212.4	20152.6	19976	20027.8	20027.8
549.18	49783.5	1039.72	23929.2	21520.4	21070.4	20862.6	20705	20670.2	20640.6	20511.7	20420.5	20489.8	20270.6	20372.6	20244.8	20158.6	20214.7	20250	20250
549.43	49766.3	1030.14	23964.9	21602.7	21194.5	20895.1	20727.5	20624.3	20499.7	20585.1	20583.9	20452.7	20451.5	20257.1	20288.1	20216.3	20167.5	20221.7	20221.7
549.679	49767.1	1028.72	24000.5	21771.7	21224.3	21007.3	20894.9	20813.9	20758.2	20659.9	20519.3	20521.3	20382.9	20375.2	20292.1	20272.3	20307.3	20266.3	20266.3
549.928	49776.4	1040.26	24118.1	21746.1	21323.5	21019.5	20973.4	20940.1	20806.1	20756.9	20585.2	20582.3	20611.9	20507.9	20492.9	20388.5	20398.1	20431	20431
550.177	50028.8	1041.88	24339.5	21865.4	21441.9	21320.1	21188	21081.2	20975.5	20886.7	20941.3	20806.1	20767.6	20734.9	20674.6	20678.8	20540.6	20655	20655
550.426	50100.8	1036.98	24383.9	22011	21688.2	21366.8	21231.3	21155.8	21126.3	21054.8	21035.9	20907.8	20867.4	20786.2	20769.4	20689.8	20656.2	20733.6	20733.6
550.675	50124.6	1044.1	24462.3	22075.7	21731.5	21421.2	21314.5	21160.7	21090.1	20953.6	21004.1	21036.5	20846.5	20777.5	20886.8	20669.7	20730.6	20720.1	20720.1
550.924	50281.5	1045.64	24615.8	22227.8	21789.4	21662.7	21449.8	21323.4	21283.3	21145.3	21168.8	21042.4	21033.3	21075.1	21047.8	21004.4	20791.4	20836.8	20836.8
551.173	50554.6	1036.8	24760.2	22388.7	22013.6	21795.8	21635.2	21439.3	21538.5	21328.3	21309.1	21362.3	21231.1	21192.8	21094.6	21165.1	21013.3	20996.9	20996.9
551.422	50346.9	1044.42	24830.9	22464.5	22005.1	21865.1	21647.1	21571.9	21354.5	21369.8	21303.1	21303.7	21320.7	21201.5	21128.3	21108.9	21043.3	21000	21000
551.671	50670.6	1039.1	25054.2	22635.3	22184.6	22016.2	21796.8	21843.5	21653	21750.8	21502.4	21506.1	21383.2	21362.4	21318.5	21416.4	21159.6	21248.6	21248.6
551.92	50526.8	1025.88	25024.8	22675.4	22199.7	22068.5	21870.1	21690	21688.4	21652.5	21514.2	21501.4	21431.9	21386.5	21436.5	21371.1	21336.2	21341.3	21341.3
552.169	50904.3	1036.98	25275.4	22873	22330.8	22186.5	22151.4	21865.8	21840.5	21682	21726.4	21650.6	21634	21561.4	21536.8	21408	21496.4	21465.6	21465.6
552.417	50799.2	1037.78	25348	22873.5	22397.3	22260.6	22102.6	22043.4	21826	21838.1	21837.9	21667.2	21677	21603.2	21610.4	21486	21641.4	21423.6	21423.6
552.666	51135	1034.66	25448.6	23117.2	22608.6	22369.3	22221.4	22196.2	22059.8	22053.3	21980	21860.6	21861	21878.2	21736	21662.1	21676.2	21606.3	21606.3
552.914	51442.5	1040.3	25677.8	23209.5	22831.3	22620.1	22438.3	22307.1	22255.9	22085.1	22200	22108.3	22085.2	21939.2	21960.3	21858.9	21760.7	21921.8	21921.8
553.163	51349.3	1042.62	25681.8	23281.2	22853	22590	22465.8	22302.3	22234.4	22254.8	22097.7	22138.9	22017.3	21935.2	21981.4	21911.1	21878.6	21764.9	21764.9
553.411	51370.7	1033.84	25793.5	23385.2	22891.6	22652.2	22651	22430.4	22424.7	22324.2	22254.2	22215.4	22090.3	22034.4	22004.8	22010.2	21985.8	21892.8	21892.8
553.66	51601	1032.9	25838.3	23335.5	22956.3	22748.1	22678	22511.8	22533	22454.3	22381.5	22240.3	22186.9	22185.4	22123	22085.9	22134.1	22047.1	22047.1
553.908	51882.1	1034.46	26073.5	23588.4	23139	23006.9	22796.9	22716.6	22601.9	22555.6	22527.4	22520.3	22325.5	22367.8	22354.6	22268.7	22255	22257.8	22257.8
554.156	52107.1	1033.1	26245.8	23802.7	23411.9	23126.6	23002.6	22817	22861.6	22768	22675.2	22602.6	22628.2	22585.2	22505.2	22530	22424.7	22423	22423
554.405	52066.8	1039.88	26236	23882.4	23438.4	23131.9	22953.9	22868.9	22864.6	22865.3	22723.4	22689.2	22694.9	22584.1	22565.7	22536	22467.3	22436.6	22436.6
554.653	52266.9	1042.64	26477.5	24042.1	23621.4	23290.8	23174.3	23056.9	23042.4	22943.7	22915.7	22840.9	22861.4	22765.7	22716.7	22665.2	22672.5	22646	22646
554.901	52384.5	1051.78	26543.5	24236.4	23563.7	23564.6	23288.5	23301.7	23044.6	23007.3	22984	22945.6	22946.4	22826.9	22796.5	22739.2	22674.4	22778.8	22778.8
555.149	52407.6	1037.8	26591.6	24094.7	23774.3	23463.2	23469.8	23234	23051.4	23143.5	23118.3	22933.1	23012.2	22851.5	22973.1	22794.6	22850.9	22884.1	22884.1
555.397	52738.8	1039.44	26841.6	24375.2	23887.7	23715.3	23616.5	23523.3	23297.8	23336.3	23314.1	23118.9	23101.7	23109.2	23027.3	23037.3	22955.9	23050.3	23050.3
555.645	52808.6	1037.74	26848.1	24366.1	24021.7	23711.1	23682	23512.4	23393	23373.6	23337.6	23229.8	23228.2	23231.3	23157.6	23195.6	23140.3	23104	23104
555.893	52829.8	1032.44	26846.3	24540.7	24056.9	23714.1	23659.1	23561.1	23495.5	23399.4	23413.3	23409.9	23209.9	23342.2	23312.9	23137.1	23142.1	23133.8	23133.8
556.141	53030.2	1043.14	26986.8	24775.1	24222.4	24079	23838.4	23634	23624.4	23639	23570.6	23533	23447.1	23325.1	23406.9	23361.4	23325.8	23332	23332
556.389	53422.7	1043.78	27265.5	24953.3	24431	24247.8	24171.2	24025.6	23908.4	23929.6	23804.1	23889.1	23681.7	23545.8	23635.1	23673.3	23640.5	23633.8	23633.8
556.637	53526.9	1045.02	27481.4	25137.9	24604.6	24390.7	24234.5	24171.3	24083.8	24038	24012.4	23890.5	23856.8	23755.3	23893.4	23762	23691	23758.1	23758.1
556.884	53645.4	1041.48	27634.8	25217.7	24751.9	24568.2	24415.4	24215.2	24169.3	24108.4	23988.5	23931.4	24017.4	23963.5	23908	23866.2	23759.7	23692.7	23692.7
557.132	53675.9	1038.12	27551.3	25270.1	24780.4	24386.7	24404.4	24364.7	24303.1	24136.7	24088.7	24006.2	23999.6	23978.2	23883	23894.8	23784	23851.5	23851.5
557.38	53881	1043.87	27742.7	25464.5	24950.4	24652.9	24523.3	24299.9	24340	24338.2	24172.8	24119.3	24147.5	24076.9	24051	23989.5	23866.4	23944	23944
557.627	54001.3	1042.3	27780.9	25426.1	24948.5	24732	24572.1	24511.6	24507.8	24330.4	24258	24226.2	24174.1	24276.6	24056.6	24077.1	24069.4	24059.6	24059.6
557.875	54198.5	1028.64	27958.7	25571.7	25147.7	24924.6	24820.8	24735.1	24732.1	24559.8	24433.9	24525.6	24350	24361.2	24315.4	24308.9	24316.2	24119.3	24119.3
558.122	54095.7	1034.4	27917.9	25656.9	25181.1	24907.3	24808.7	24665.8	24551.6	24581.5	24514.2	24426.3	24344.7	24481.1	24305.1	24335.8	24293.9	24295.3	24295.3
558.369	54377.5	1039.94	28281.1	25789.3	25333.4	25305.3	24974.6	24896.8	24911.1	24741.5	24757.8	24724.2	24602	24580	24568.3	24575.9	24572.2	24464.1	24464.1
558.617	54471.6	1033.24	28314.4	25967.6	25469.6	25310.8	25207.3	25099.1	25048	24812.1	24805.4	24826.8	24918.9	24727.9	24750.6	24610.6	24664.8	24545.4	24545.4
558.864	54373.8	1047.28	28362.2	25992.4	25506	25218.8	25115.8	25033.9	25041.8	25039.8	24856.8	24779.9	24874.8	24621.4	24738.5	24666	24478.5	24527.1	24527.1
559.111	54874.1	1041.62	28649.6	26286.6	25761.9	25565.4	25521.4	25270.6	25292.5	25142.9	25159.7	25142.4	24942	24993.9	24909.9	24829.9	24881.3	24722.6	24722.6
559.359	54609.2	1034.94	28565.1	26181.7	25686.3	25610.6	25365.4	25393.5	25303	25120.8	24980.2	24989.1	24900.8	25011.5	25120	24867.8	24978.3	24867.9	24867.9
559.606	55024	1041.52	28780.5	26497.4	26054.1	25758.8	25684.3	25598	25320.4	25467.8	25265.9	25168.7	25291.3	25256.9	25245	25174.2	25018.9	25093	25093
559.853	55038.9	1041.7	28930.2	26650.5	26029.7	26003	25884.6	25632.6	25585.6	25582.1	25303	25392.8	25382.8	25356.8	25256.8	25342.1	25152.8	25196.8	25196.8
560.1	55227.6	1043.96	29008.4	26666.7	26234.2	25934.3	25875.9	25866.5	25792.3	25591	25474.3	25546.4	25501.4	25462.1	25365.9	25448.9	25416.8	25275.1	25275.1
560.347	55110	1041.02	28908.7	26574.6	26230.5	26043.4	25808.7	25748.8	25692.2	25735.9	25591.2	25438.3	25427	25395.6	25481.1	25379.4	25452.8	25279.5	25279.5
560.594	55136.9	1035.46	29048.8	26712.7	26301	25980.9	26022.2	25807.8	25758	25689.2	25586.1	25568	25629.6	25645.7	25563.3	25465.7	25453.7	25435.3	25435.3
560.841	55478.3	1044.22	29237.4	26865	26585.5	26096.9	26121	26026	26032.7	25966.9	25865.4	25845.9	25754.3	25726.1	25611.4	25688.3	25620.9	25677.7	25677.7
561.087	55336.6	1036.12	29182.6	26910.4	26368.9	26269.5	26157.8	25981.5	25882.9	25809.9	25754	25790.1	25768.1	25816.8	25760.8	25547.2	25516.3	25590.2	25590.2
561.334	55515.5	1034.48	29320.6	27093.7	26460.8	26392.7	26240.6	26071.1	26023.2	25943.3	25921.4	25887.2	25863.2	25793.9	25751.9	25723.4	25662.7	25580.2	25580.2
561.581	55529	1033.96	29499	27234.2	26783.4	26434.8	26329	26253.6	26259.2	26188.6	26052.3	25958.2	26093.3	25851.4	25921.7	25867.9	25816.2	25900.9	25900.9
561.828	55842.5	1037.3	29651.6	27429.7	26913.7	26833.7	26501.5	26561.1	26408.4	26283.8	26286.1	26143.9	26230.7	26283.8	26172.9	26164.6	26194.9	26001.1	26001.1
562.074	55594.1	1051.04	29634.1	27463	26907.1	26770.1	26454.9	26340.6	26378.3	26345.6	26278.4	26331.2	26138.8	26160.4	26060.6	26022.8	26047.8	26099.2	26099.2
562.321	56102.1	1037.06	29946.8	27702.8	27234.8	26995.6	26722.2	26663.3	26629.2	26605	26466.4	26569.2	26490.4	26528.2	26282.3	26388	26324.4	26295.7	26295.7
562.567	55966.7	1039.06	29890	27681.4	27196.5	26918.9	26801.8	26619.7	26665.3	26479	26510.3	26507.7	26472.9	26330.6	26365.9	26359.6	26312.6	26286.9	26286.9
562.814	56271.8	1033.1	30178.5	28035.7	27355.5	27063.8	27199.1	26975.6	26910.7	26760	26818.2	26749.8	26619.9	26511.6	26540	26496.9	26572.5	26579.2	26579.2
563.06	56163.6	1036.66	30132.3	27887.3	27430.5	27179.7	27115.6	26988.5	26800.8	26918	26824	26788.1	26730.5	26711.5	26669.2	26662.8	26630.6	26484.1	26484.1
563.306	55984.5	1037.56	30135.3	27873.4	27457.5	27166.1	27094.6	27049.5	26957.4	26846.2	26738.8	26739.4	26730.3	26806.3	26686	26713.7	26657.4	26562.5	26562.5
563.553	56058.1	1034.36	30284	27964.2	27570.8	27303.8	27276.6	27125.2	27115.3	26984.9	26870.6	26840.6	26810.2	26770.6	26768.9	26686.5	26712.2	26672.1	26672.1
563.799	56205.2	1030.04	30462.9	28258.8	27700.5	27521	27336.3	27305.6	27208.2	27120.2	27163.9	27045.1	26929.6	26975.9	26848.4	26718.7	26877.6	26865.4	26865.4
564.045	56253.5	1039.14	30545.1	28281.6	27838.9	27537.8	27403.7	27374.9	27169.2	27182	27126.6	27105.8	26934.9	27017.5	26958	26901.8	27021	26862.5	26862.5
564.291	56549.3	1039.56	30775.5	28568	27985.3	27820.6	27714.5	27521.4	27539.4	27457.5	27446.8	27313.7	27235.4	27323.6	27189.3	27197.3	27097	27236	27236
564.537	56417.4	1035.84	30591.5	28403.6	28147.2	27749.4	27597.3	27529.5	27602.6	27382.2	27421.1	27294.7	27356.6	27365.7	27320.7	27328.1	27147	27080.9	27080.9
564.783	56436.5	1039.88	30732.8	28416.8	27964.6	27874.6	27687	27684.2	27663	27640.8	27485	27441.5	27445.5	27441.3	27328	27389.1	27298.1	27192	27192
565.029	56610.3	1042.6	31014	28707	28256.9	27981	27936.9	27873	27879.7	27705.8	27548.7	27655.1	27641.3	27498	27501.1	27573.1	27414	27517.1	27517.1
565.275	56568.9	1039.44	30912	28756.4	28318.7	28236.5	27910.9	27889.5	27881	27711.9	27667	27641.2	27592.6	27645.2	27507.8	27542	27557.1	27447.9	27447.9
565.521	56565	1034.48	30992.9	28799.1	28404.5	28061.8	28041.8	27886.2	27947.9	27798	27816.4	27816.6	27795.3	27569.6	27531.9	27654.4	27667.9	27524.7	27524.7
565.767	56627.4	1035.74	31096.6	28981.3	28414.7	28328.7	28064.3	28150.9	27907	27929.2	27867.4	27954	27765	27660.5	27651.6	27546.4	27627.4	27524.5	27524.5
566.013	56609.7	1040.2	31062.6	28907.6	28472.2	28271.1	28178.6	27985.5	28089.1	27929.3	28049.7	27859.4	27866.7	27856.2	27829.6	27711	27628.4	27620.3	27620.3
566.258	56757.4	1040.2	31208.8	28982.8	28567.8	28411.6	28197.2	28133.4	28096.6	28075.9	27987	27923.8	27876.7	28002.7	27878	27769.4	27793.8	27727.7	27727.7
566.504	56844.5	1035.4	31249.7	29143.9	28543.3	28443.8	28281.4	28219.1	28248.7	28047	28143.6	28123.9	27991.5	28106	27970.9	27990.8	27841.5	27793.6	27793.6
566.75	56688.4	1035.6	31135	29083.6	28546.7	28371.7	28237.7	28155.4	28157	28076.2	27960.3	27958.3	27998	28012	27963.5	27994.7	28008.3	27864	27864
566.995	57115.8	1035.5	31438.7	29422.3	28911.4	28792.8	28636.8	28635.8	28455.3	28348.5	28334.2	28465.6	28326.4	28127.3	28202.9	28217.5	28189.8	28193.3	28193.3
567.241	56649.3	1043.46	31318.4	29184.5	28866.8	28749.3	28407.7	28228.7	28257.7	28237.3	28098.4	28083.5	27972.7	28065.6	27945.8	28027.3	27983.8	28065.7	28065.7
567.486	56945.4	1040.46	31454.7	29288.8	28895.9	28764.8	28633.5	28494.7	28590	28396.3	28368.6	28347.5	28206.3	28346.5	28141.3	28128.6	28154.5	28175.3	28175.3
567.732	56829.9	1034	31441.5	29240	28845.4	28629.6	28624.4	28410	28386.7	28346.9	28236.4	28291.5	28132.4	28204.4	28112.6	28016.6	28078.9	28055	28055
567.977	56753.5	1036.6	31258.5	29302.5	28860.6	28634	28542	28507.1	28422.5	28249.8	28306.2	28196	28253.6	28317.1	28245.8	28246.3	28190.3	28088.9	28088.9
568.222	56950.2	1032.18	31522.9	29491.8	29016.7	28927	28725.4	28621.9	28555.3	28620.3	28409.7	28396.3	28461.7	28441.3	28408.4	28224.9	28372.7	28179.3	28179.3
568.467	57048.3	1037.82	31693.7	29746.3	29253.3	28981.2	28817	28776.3	28673.7	28597.8	28590.1	28565.1	28575.7	28479.2	28481	28512.7	28545.1	28387.2	28387.2
568.713	56923.2	1039.2	31630.6	29690.5	29245.3	29039.2	28914.9	28819.3	28665.7	28734	28582.9	28566.3	28511.7	28599	28421.5	28488.8	28524	28472.4	28472.4
568.958	56950.2	1038.1	31703.8	29729.9	29412.7	29202.1	29044.5	28861	28866.8	28781.8	28774.4	28717.7	28562.7	28616	28617.5	28526.1	28466.7	28534.6	28534.6
569.203	56940.2	1039.68	31762.5	29745.4	29242.1	29077.3	29074.5	28769.3	28819	28759.4	28717.6	28614.1	28641.8	28529.4	28545.7	28486.2	28588.8	28511.1	28511.1
569.448	56935.3	1033.54	31655.5	29746.8	29219	29190.6	29002	28945.1	28949.9	28758.1	28834.7	28854.4	28684.5	28681.7	28557.8	28532.3	28521.9	28500.9	28500.9
569.693	56969	1042.36	31779.8	29952.7	29419.2	29150.4	29074.4	28965.2	28923.8	28791.5	28757.1	28650.3	28660.9	28632.4	28656.6	28577.8	28625.6	28530.6	28530.6
569.938	56873.9	1044.64	31691.6	29982.6	29430.8	29283.9	28973.4	28911.2	28803.5	28769.7	28782.9	28715.1	28722.6	28606.5	28710.2	28587.8	28692.7	28584.4	28584.4
570.183	57150.4	1034.18	31894.3	30043	29538.5	29401	29178.3	29123.3	29129.7	29013.7	29065.1	28939.8	28826.8	28903.2	28913.8	28911.7	28787.6	28749.4	28749.4
570.427	56982	1040.52	31767.8	29943.9	29464.7	29354.2	29300.8	29336.7	29078.6	29037.5	28982.8	28919.8	28899.5	28870.2	28946.9	28819.6	28757.1	28849.9	28849.9
570.672	57054.2	1048.37	31948.2	29981.6	29423.6	29428.7	29354.9	29273.6	29362.6	29130.5	29060.2	29029.7	28916.9	28975	28954.2	28995.1	28912.4	28864.4	28864.4
570.917	57062.4	1043.88	32091.1	30200.3	29687	29618.8	29384.6	29305.5	29329.1	29317.5	29195.9	29132.2	29052.1	29056.8	28956.2	28953.6	28909.4	28832.7	28832.7
571.162	56847.1	1033.94	32022.7	30062.5	29783.9	29638.9	29416.9	29328.5	29276.4	29307.7	29130	29105.4	29197.6	29009.6	28972.3	28963.7	28870.9	28871.3	28871.3
571.406	57267.2	1041.34	32209.4	30443.9	30030.3	29850.3	29644.6	29510.1	29409.1	29362.9	29365.2	29287.3	29243.4	29276.8	29223.6	29193.2	29160.6	29099.1	29099.1
571.651	57181.3	1027.52	32145.7	30286.7	29882.7	29633.5	29631.9	29596.8	29455.4	29379.6	29424.9	29284.7	29213.7	29243.3	29159.5	29253.8	29118.7	29100.2	29100.2
571.895	56983.4	1037.94	32128.3	30185.3	29901.6	29699.6	29687.1	29453.7	29438.9	29286.6	29386.3	29294	29229.4	29200.3	29218.5	29155.6	29084.8	29097.4	29097.4
572.14	57088.9	1047.26	32323.6	30492.9	29970	29862.6	29816.3	29752.3	29594.3	29500.2	29647.7	29553.2	29462.8	29376.4	29325.7	29327.8	29241.9	29293.9	29293.9
572.384	57053.2	1046.88	32288	30475.6	30084.3	30000.5	29759.3	29550.4	29487.1	29526.8	29442.6	29562	29387.3	29369.9	29259.5	29371.5	29243.1	29418.8	29418.8
572.628	57034	1039.36	32272.7	30491.7	30038.4	29824.4	29619.3	29639.1	29589.9	29474.2	29571.2	29517.7	29441.1	29441.2	29391.9	29416.3	29325.9	29308.2	29308.2
572.873	57301.8	1050.46	32406.8	30606.4	30320.1	30236.5	30042.3	29843.8	29761.1	29681.5	29650.5	29716.6	29567	29574.3	29513.8	29528.3	29501.5	29479.4	29479.4
573.117	57228.4	1042.5	32471.3	30602	30282.2	29983.8	29903.6	29766.8	29842	29692	29576.2	29581.7	29563.9	29572.1	29595.7	29573.7	29473.8	29482.6	29482.6
573.361	57257.8	1041.5	32470.9	30711	30341.3	30161.6	29994.9	29918.8	29832.7	29846.1	29578.8	29692.2	29710.5	29693.7	29615.8	29671.8	29673.3	29590.7	29590.7
573.605	57163.5	1046.36	32465.6	30624.5	30356.6	30153.9	29911	29832.1	29828.1	29819.9	29828.2	29721.4	29733.5	29613.3	29611.7	29629.8	29591	29624	29624
573.849	56983	1038.64	32384.8	30721.4	30228.8	30149.1	29968.3	29870.2	29772.8	29776	29836.4	29674.1	29716.3	29676.1	29590.6	29497.9	29599.8	29583.9	29583.9
574.093	57077.7	1034.56	32492	30873.7	30449	30176	30153.9	29957.6	29978.1	29937.4	29790.1	29841.9	29840.5	29753.1	29868.6	29764.1	29743.6	29773.5	29773.5
574.337	57142.3	1050.28	32636.5	30949.4	30498.5	30318.3	30241	30104.2	30099.9	30159.7	30041.3	30012.9	29899.3	29805.1	30020	29840	29884.8	29903.3	29903.3
574.581	57205.2	1038.56	32721.6	31007.3	30525.6	30364	30220.1	30193.7	30134.4	30089.4	29932	29919.7	30009.7	29904.9	29880.6	29730.7	29884	29829.5	29829.5
574.825	57265.4	1039.7	32775.9	30981.4	30626	30427.9	30356.1	30203.2	30144.2	30090.8	30012.4	30002	30135.9	29912.2	29938.6	29713.8	29942.5	29938.7	29938.7
575.069	57026	1039.32	32541.7	30871.9	30515.9	30340.5	30128	30270	30086.2	30093	29948.5	30045.5	29976.9	29973.6	29838.7	29887.4	29808.3	29877.4	29877.4
575.313	57150.5	1049.08	32702.2	31103.2	30625.1	30471	30415.7	30339.7	30253.9	30185.4	30294.4	30205	30173.1	30011.5	30058.6	29944.2	30033.8	30132.1	30132.1
575.556	57267.2	1042.34	32791.6	31066.8	30703.5	30511	30376	30518.8	30323.5	30432.9	30251.5	30191.8	30163.7	30177.7	30184.3	30030.1	30158.9	30102.8	30102.8
575.8	57107.4	1036.88	32804.7	31098.9	30722.6	30720	30475.4	30454.8	30380.4	30299.3	30327.5	30249	30205.5	30185.5	30192.2	30211	30154.6	30127.8	30127.8
576.044	57296.3	1034.72	33021.4	31365.9	30946.6	30859.3	30625.4	30594.1	30439.5	30525.2	30446.8	30432.6	30321.6	30355.7	30146.2	30223.4	30336.6	30309.7	30309.7
576.287	57103	1032.54	32944.4	31206.9	30993.6	30758.3	30655.1	30565.6	30406.3	30444.5	30348.9	30382.7	30391	30248.1	30270.8	30254	30163.8	30171.8	30171.8
576.531	57112.5	1033.72	32947.1	31231	30911.1	30958.6	30633.6	30638.6	30438.2	30475	30548.8	30472.2	30343.3	30380.5	30386.6	30295.4	30255	30236.9	30236.9
576.774	57143.9	1027.7	33013.1	31361.9	30934.6	30794.5	30731.4	30696.1	30644.6	30456.2	30491.5	30444.2	30361.3	30347.5	30407.8	30285.2	30222.8	30249.2	30249.2
577.018	57160.1	1037.06	33041	31460.6	31119.1	30826.8	30712.9	30649.7	30653.8	30570.5	30490	30415	30396.3	30251.1	30321.8	30150.7	30331.7	30274.7	30274.7
577.261	57202.3	1038.28	32922.4	31416.8	31044.5	30780.8	30706.1	30715	30602.5	30534.3	30359.7	30533.9	30474.9	30257.6	30440.7	30365.4	30421.1	30299	30299
577.504	57418.9	1043.02	33179.4	31532.1	31145.3	31066.5	30924.4	30879.7	30906.8	30910.1	30826.4	30692.6	30623.8	30644.3	30556.8	30597.7	30524.5	30567	30567
577.747	57213.5	1035.51	33019.8	31483.7	31123.5	30981.1	30834.5	30903.4	30794.1	30775.2	30725.8	30754.6	30684.5	30593.4	30611.2	30614.9	30402.4	30531.1	30531.1
577.991	57224.8	1037.34	33112.7	31669.5	31057.1	30948.4	30958.3	30741.3	30709.5	30685.1	30691	30712.1	30788.6	30691	30631.8	30659	30474.5	30559	30559
578.234	57186.4	1041.8	33047.4	31635.4	31215	30993.7	30882.2	30710.3	30739.8	30787.7	30698.5	30652.1	30606.4	30519	30483.2	30408.3	30468.1	30412.6	30412.6
578.477	57204	1030.78	33028.3	31364.2	31171.9	30991.3	30880.8	30819.6	30694.6	30767.4	30762.5	30664.1	30637.1	30690.8	30566.5	30640	30483.6	30564.2	30564.2
578.72	57065.4	1037.94	33058.5	31569	31075.2	30939.6	30824.2	30678.6	30594.3	30676.8	30528.4	30634.9	30543.6	30518.3	30570	30569.3	30407.2	30516.7	30516.7
578.963	57143.8	1039.9	33142.7	31580.2	31164.6	31009.6	30918.6	30898	30730.6	30748.2	30742.8	30555.7	30525.1	30575.5	30436.6	30489.6	30521.6	30575.1	30575.1
579.206	57031.3	1040.8	33039	31526.8	31143.3	30987.7	30888.2	30810.1	30751.6	30764.5	30695.7	30698.6	30696.7	30685.5	30526.1	30703.5	30528.3	30555.2	30555.2
579.448	56937.6	1041	33018.8	31607	31228.7	31002.2	30921.4	30963.4	30889	30708.7	30815.1	30634.8	30764.9	30598.3	30617.6	30553.2	30512	30576.5	30576.5
579.691	57164.3	1045.4	33201.8	31757.8	31264.6	31124.2	31079.2	31072.6	31039	30984	30949.6	30909	30837.6	30920.6	30873.4	30793.3	30677.5	30684	30684
579.934	57055.7	1040.34	33129.1	31698.2	31215.4	31102.6	31044.5	30918.8	30964.2	30818.7	30820.2	30684.6	30820.3	30747.5	30780.6	30681	30663.5	30635.1	30635.1
580.177	57236.9	1034.72	33230.3	31468.4	31395.9	31194.7	31148.5	31027.1	30938.5	30906.3	30848.6	30802.5	30796.9	30782.6	30792.5	30697.7	30740.4	30808.8	30808.8
580.419	57075.1	1024.56	33161.6	31746.1	31375.7	31146.2	31062.6	31095.8	30898.7	30882.7	30942.7	30751.6	30733.4	30823.1	30623.9	30771.2	30665	30633.2	30633.2
580.662	57277.5	1039	33353.8	31755.7	31552.7	31354	31376.1	31185.1	31173.2	31046.1	31087.9	31162.5	30970.6	30988.3	30903.7	30983.3	30858.1	30979	30979
580.905	57216.7	1036.83	33245.6	31899.9	31468.3	31394.1	31224.2	31183.9	31130.4	31083.9	31158.5	31038.7	30963.9	30796.4	30950.5	30926.4	30860.9	30792	30792
581.147	57112.7	1040.48	33207.9	31758.7	31457.3	31418.1	31306.3	31139.1	31033	31069.6	31066.3	31054.1	31063.2	30996.9	31018	31064.9	30851.4	30888.8	30888.8
581.389	57057.3	1073.78	33360.3	31906.3	31576.2	31377.4	31317.7	31220.5	31139.9	31213.7	31095.4	31056.1	31102.6	31122.6	31137.8	30966.1	30990.3	30982.8	30982.8
581.632	56984.7	1047.38	33252.6	31915.4	31677.4	31390.2	31236.8	31334.2	31230.4	31118.7	30954.6	31074.8	31110.3	31053.7	30989.7	30979.6	30939.7	30887.7	30887.7
581.874	57140	1039.44	33367.2	32061.4	31745.8	31467.2	31398.2	31550.3	31444.5	31226.3	31234.2	31197	31159	31086.7	31106	31013.4	31129.6	31057.1	31057.1
582.116	57165.2	1035.76	33401.4	32003.9	31643.3	31561.7	31429.1	31389.3	31244.5	31287.9	31115.7	31121.7	31139.1	31217.2	31057.1	31066.3	31076.2	31042.9	31042.9
582.359	56920.6	1044.82	33351.1	31958.8	31597.6	31471.9	31312.3	31269.9	31248.8	31139.9	31244.9	31072.3	31120.6	31119.6	31076.2	31030.3	30972.1	30961.1	30961.1
582.601	57090.1	1036.88	33552	32116	31879.5	31725.3	31570.2	31385.8	31372.2	31368.9	31326.3	31113	31268.8	31264.1	31263.2	31245.6	31118.4	31071.8	31071.8
582.843	57016.5	1041.86	33513.4	32087	31786.5	31624.7	31635.9	31494.2	31427.1	31438.7	31265.6	31289.7	31257.2	31174.3	31289.8	31065.3	31113.3	31299.9	31299.9
583.085	56828.9	1040.88	33400.6	32118.2	31718.3	31493.8	31399	31472	31341.1	31223.7	31181.8	31198.5	31189.5	31113.5	31185	31143.9	31193.5	31007.3	31007.3
583.327	57040.5	1033.4	33454.9	32103.4	31927.6	31659.7	31560.8	31420.1	31297.9	31343.7	31268.7	31334.2	31273.1	31204.7	31306	31218.3	31172.6	31197.7	31197.7
583.569	57120.2	1043.82	33362.5	32229.9	31922.1	31732.6	31507.1	31499.9	31386.4	31465.3	31408.5	31439.1	31310.1	31391.6	31315.3	31354.8	31295.5	31295.4	31295.4
583.811	57109.9	1038.5	33517.2	32191.6	31983.7	31768.7	31814.1	31611.6	31556	31520.3	31565.6	31353	31257.8	31331.5	31215.1	31434.6	31232.3	31155.5	31155.5
584.053	56905.4	1034.04	33545.9	32085.3	31781.4	31649.8	31590.8	31569.6	31431.6	31486.8	31329.7	31248.9	31271.1	31240.4	31279.1	31318.1	31282	31177.8	31177.8
584.295	56971.6	1039.16	33525.7	32178.4	31809.9	31810.8	31549.6	31532	31451.6	31424.6	31339.4	31339.9	31313.9	31379.8	31123.2	31243.5	31194.7	31220	31220
584.536	57205.2	1041.58	33640.2	32321.8	32088	32006.2	31706.1	31633.1	31578.3	31579.5	31598.8	31483.6	31519.7	31489.7	31545.8	31539.3	31389.6	31383.1	31383.1
584.778	56830.9	1033.24	33394.8	32079.5	31741.4	31612	31465.2	31449.2	31389.7	31434.4	31309.5	31343.6	31342.7	31316.6	31223.9	31288.9	31146.3	31182.6	31182.6
585.02	57065.4	1028.54	33677.5	32293.5	32044.1	31691.6	31797.4	31798.2	31680.5	31701.7	31571.6	31598.1	31516	31650	31542.9	31409.2	31559.6	31475.9	31475.9
585.261	56985.2	1044.94	33558.8	32200	31960.6	31765	31696.8	31645.3	31491.9	31542.1	31415.7	31421.9	31500.2	31405.8	31480	31359.9	31388.7	31441.6	31441.6
585.503	56861.4	1047.06	33380.3	32166.6	31875	31676	31598.5	31482.7	31496.5	31338.6	31336.5	31426.9	31350.7	31384.2	31396.9	31295	31324.5	31339.8	31339.8
585.744	57070.8	1042.82	33570.8	32120.4	32027.7	31746	31630.2	31576.5	31638.7	31618.9	31569.1	31470.5	31447.8	31418.3	31462.2	31376.9	31403.6	31578.3	31578.3
585.986	57011	1046.44	33416.6	32285	31795.8	31736.1	31765	31540.3	31535	31746.3	31469.1	31543.9	31444.3	31388.2	31399.7	31361.3	31383.2	31380.7	31380.7
586.227	57048.4	1049.04	33529.2	32318.1	31956.2	31824.9	31735.3	31803.7	31643.4	31595.3	31568	31508.6	31498.1	31579.6	31652.1	31577.7	31426	31485.9	31485.9
586.468	56743.5	1052.18	33462.6	32161.2	31925.2	31809.2	31639.1	31687.5	31427.4	31478	31501.5	31448.9	31462.2	31563.3	31363.6	31346.8	31350.3	31407.3	31407.3
586.71	56955.5	1042.8	33555.5	32549.2	32057.8	31914.4	31946	31820.8	31891.4	31721.8	31678.4	31623.8	31573.5	31504	31586.2	31714.2	31583.2	31485.9	31485.9
586.951	57022.2	1046.31	33604.7	32496.5	32293.5	31986.5	31976.3	31908.5	31852.5	31828.6	31893.2	31755.5	31734.1	31653.5	31661.6	31729.2	31719.3	31650.3	31650.3
587.192	56816.3	1037.7	33424.9	32269.8	32035.4	31722.2	31830.1	31771.9	31663	31608.2	31571.9	31602.7	31470.2	31434.6	31550.9	31382.9	31367.4	31357.8	31357.8
587.433	57027.4	1039.54	33555.8	32330.5	32105.4	31879.6	31937.4	31808.3	31741.2	31897.6	31693.6	31670.5	31700.6	31681.4	31721.1	31533.1	31660.3	31509.4	31509.4
587.674	57079.8	1045.9	33608.3	32400.7	32176.9	32032	31848.1	32005.7	31936.3	31846.6	31776.1	31680	31736.6	31811.5	31706	31646.5	31729.6	31577.2	31577.2
587.915	57031.7	1036.1	33586.1	32508.1	32232.1	32117.8	31967.8	31856.5	31873.5	31869.3	31765.3	31730.5	31851.3	31674	31618.5	31701.9	31739.4	31647	31647
588.156	57011.8	1040.6	33554	32479.7	32084.8	31882.6	31862.3	31906.8	31905.7	31863.6	31690.2	31751.1	31532.2	31596.2	31608.7	31565.5	31549.3	31617.4	31617.4
588.397	57185.8	1044.7	33637.8	32440.8	32102.4	32157.1	32030.3	31971.5	31904.4	31905.1	31823.3	31904.7	31779.9	31882.1	31655.1	31610	31798.4	31631.6	31631.6
588.638	57027.4	1041.46	33649.9	32402.7	32108.7	32076.4	31997.5	31823.5	31958.1	31900.6	31803.2	31730.1	31889.7	31644.6	31753.4	31697.8	31743.6	31723.6	31723.6
588.879	57029.9	1040.42	33624.7	32413.2	32277.5	31981.1	32082.3	32004.6	31831.4	32029.5	31902.1	31769.5	31833.3	31760.2	31724.8	31769.9	31717.5	31589.5	31589.5
589.119	57031.3	1031.34	33653.4	32419.3	32252.4	31883.1	32023.1	31900.5	31972.2	31913.3	31880.9	31826.5	31715.7	31896.9	31619.6	31850.6	31815.9	31770	31770
589.36	56912.2	1035.94	33615.9	32494	32148.7	32096.9	32039.1	32034.5	32028.7	31958.7	31927	31982.9	31727.3	31887.9	31941.1	31741	31823.6	31789.9	31789.9
589.601	56808.3	1043.56	33679.9	32459	32266.3	32074.9	32016.3	31837.1	31857.8	31912	31829.3	31931.2	31796.8	31808	31757	31719.3	31614.8	31563.3	31563.3
589.841	57084.7	1039.34	33682.5	32520.4	32362.7	32281.6	32202.8	31971.2	32133.4	32033.4	31944.8	31910.5	31841.9	31932.2	31811.5	31754.2	31799	31869.7	31869.7
590.082	56922.8	1035.5	33597.5	32418.9	32158.2	32032.1	32147.2	32032.8	31951.9	31998.4	31857.5	31859	31802.5	31832.6	31812.2	31785.4	31815.4	31814	31814
590.322	56989.8	1042.5	33578.1	32578.2	32383	32144.4	32219.9	32024.3	32014.2	31956.7	31853.5	31929.4	31786.7	31874.1	31837.9	31892	31773.4	31868.9	31868.9
590.563	57080.2	1047.52	33644.5	32583.9	32397	32187.5	32174.3	32269.9	32046.4	31962	31912.8	31939.4	31908.4	31958.9	31831.1	31826.4	31811.9	31849.5	31849.5
590.803	57030.4	1036.3	33737.8	32666.5	32410.1	32239.6	32098.2	32014.8	31944.5	32006.3	31980.7	31888	31978.3	31892	31930.8	31979.8	31741.8	31816	31816
591.043	56767.3	1037.3	33444.7	32491.6	32217.6	32117.3	31998.6	31889.6	31861.4	31845.9	31841.5	31765	31764.4	31905.1	31861.2	31782.3	31699.9	31754.5	31754.5
591.284	57019.5	1036.34	33586.9	32589	32314	32302.8	32186.6	32131.7	32084.2	31956.7	32038.9	32001.1	32126	31968.9	31951.2	31986.1	31919.6	31660.6	31660.6
591.524	57055.3	1039.98	33673	32592.3	32444.5	32135.9	32033.7	32118	32141.3	32096.6	32031.1	31857.1	31957.9	31968.1	31906.2	31796.8	31787.4	31809.1	31809.1
591.764	56915.1	1034.16	33533	32467.5	32315.5	32166.6	32069.7	31866.4	31853.1	31831.9	31929.4	31939.8	31827.9	31843.3	31783.4	31812	31789.3	31741.6	31741.6
592.004	56946.6	1042.98	33592.3	32614.7	32354.6	32163.2	32224.6	32075.8	32013.4	32049.7	31908.2	31941.3	31887	31865.7	31894.5	31899.8	31800.5	31766.9	31766.9
592.244	57264.7	1038.16	33839.2	32798.1	32505.5	32352.5	32490.4	32251.3	32443.4	32256.9	32225.1	32130.8	32143.5	32146.4	32158.4	32072.3	32089.5	32033.4	32033.4
592.484	56941	1036.62	33721.5	32709.9	32443.3	32124.8	32158.7	32166.2	32124.3	32100.6	32022.2	32041.4	31963.8	31946.6	32117.3	31912.9	31998.3	31909.6	31909.6
592.724	56942	1040.9	33633.9	32639.7	32290	32309.1	32280.9	32178.9	32192.6	32001.9	32042.1	32112.6	31949.8	31863.3	32062	31965.2	31911.3	31839.8	31839.8
592.964	57085.1	1046.92	33805.3	32695.2	32591.2	32393.2	32318.4	32280.7	32222	32170.7	32196.1	32145.2	32126	32079.4	31940.9	32038.5	32063.9	31941.7	31941.7
593.204	56932.8	1039.56	33794.4	32672.2	32588.5	32423.3	32333	32240.9	32149.7	32201.5	32149.9	32028.9	32065.2	31992.1	31973.1	32075.7	32008.7	32042	32042
593.444	56986.9	1039.36	33796	32834.6	32398.7	32330.3	32280.3	32162.2	32309.8	32160.1	32217.2	32121.2	32112.1	32094.6	32004.5	32121.1	32051.3	32043.9	32043.9
593.683	56887.7	1046.36	33776.1	32751.1	32517.9	32366.8	32314.2	32279	32324.3	32402.3	32276.7	32135	32137.5	32117.3	32170.8	31979.5	32143.5	32162.8	32162.8
593.923	56771.7	1039.98	33775.1	32730.2	32553.1	32390.6	32392.2	32324	32137.7	32147.8	32209.7	32107.9	32172	32109.5	32179.9	32051.1	32173.9	31949.3	31949.3
594.163	56677.8	1037.22	33632.1	32644.8	32505.3	32272.9	32325.4	32078.4	32140	32118.2	31884.3	32056.3	32051.2	31929.1	31927.9	32000.4	31804.9	31936.3	31936.3
594.402	56820.8	1033.94	33781.9	32825.9	32503.7	32446.3	32367.5	32316	32161.3	32257.6	32105.5	32072.7	31994.3	32149.2	32218.8	32043	32013.5	31990.1	31990.1
594.642	57009.7	1042.32	33843.2	32845.8	32658.6	32399.2	32359.2	32315.5	32376	32231.3	32353.8	32179.4	32154.3	32116.2	32212.1	32186.9	32088.6	32268.9	32268.9
594.881	56569	1032.06	33561	32603.9	32360.3	32348.9	32137.6	31997.6	32003.6	32030	31959.6	31969.6	32032.8	31931.1	31868.7	32128.5	31867	31890.8	31890.8
595.121	56787	1037.28	33802.6	32794.6	32482.6	32410.1	32424.8	32274.3	32124.6	32208	32187.3	32054.2	32127.1	32107.7	32289.2	32149.7	32074.3	32056.8	32056.8
595.36	56359.3	1034.82	33632.6	32625.7	32390.2	32343.7	32151.8	32026	32064.7	32026.7	32030	31923.4	31884.6	31867.4	31959.4	31927.3	31846.7	31996.1	31996.1
595.599	56424.7	1031.52	33603.5	32604.1	32487	32382.6	32239.2	32169.1	32088.7	32089.3	32096.1	32074.5	32031.3	31996.4	32132.6	32090.7	31983.3	32076.9	32076.9
595.839	56402.6	1039.36	33733.4	32687	32485.1	32369	32254.7	32175.3	32221.5	32164.3	32062	31980.3	32230.5	32127.7	32070.7	32071.2	32037.7	32097.6	32097.6
596.078	56346.7	1042.2	33640.1	32697.1	32567.1	32471.7	32157.6	32305.1	32177.3	32184.2	32109.4	32142.7	31951.5	31902.3	31919	32064.9	31890.9	32020.1	32020.1
596.317	56296.2	1043.06	33780.5	32669	32478.7	32347.6	32277.1	32285.8	32253.5	32253.1	32144.4	32082.7	32113	32024.3	31971.8	32000.4	32005.3	31946.5	31946.5
596.556	56317	1035.22	33491.5	32668.2	32493.4	32373.5	32342.2	32248.7	32088	32095.4	32102.3	32136.7	32064.2	32073.6	32005.6	32072.9	32010	31842.2	31842.2
596.795	56085.8	1052.48	33367.6	32580.2	32182.8	32116.5	32053.4	32187.2	32077.7	32023.5	32030.8	31836.1	31916.3	32114.5	31977	31923.5	31889	31912.6	31912.6
597.034	56044.2	1037.22	33445.5	32580	32501.3	32242.8	32119.6	32064.8	31980	32073.8	31915.1	32009.7	32081.3	31956.8	32004.9	31883.2	31964.2	31949.5	31949.5
597.273	55959.2	1035.3	33523.9	32658	32438.8	32236.5	32204.2	32142.5	32147.6	32176	32116.5	32113.3	32133.1	31997.9	31980.6	32040.7	31892.1	32017.7	32017.7
597.512	56142	1040.84	33732.2	32761.7	32731.8	32534	32376.5	32419.3	32230.9	32258.3	32243.5	32305.2	32125.8	32174.7	32148	32125.4	32187.4	32166.2	32166.2
597.751	55765.6	1030.14	33522.8	32582	32405.3	32178.6	32265.6	32352.9	32149.2	32165.6	32107.2	32036.7	32204.8	32010.6	31945.4	31941.9	32081.1	31938.2	31938.2
597.99	55746.3	1038.7	33548.2	32690.5	32504.5	32284.6	32344.6	32302.3	32243.1	32134.4	32109.9	32097.6	32087.5	32098.8	32096.7	32017.6	32044.7	31988.9	31988.9
598.228	55672	1038.98	33446.2	32536.6	32365.7	32209	32127.4	32215.9	32004	32038.2	32021.5	31928.6	32001.9	31981.8	31973.9	31953.9	31969.1	32035.8	32035.8
598.467	55700.7	1036.54	33400.1	32562.7	32342	32280.9	32248.3	32144.1	32042.6	32090.9	32055.1	32044.7	31958.1	31959.8	31947.6	31814.1	31870.6	32063.4	32063.4
598.706	55670.7	1039.84	33492.6	32516.3	32359.8	32246.7	32271.7	32202	32073.7	32072.2	32098.8	32090.1	32071.2	32043	32019.1	31996	32111.7	32023.8	32023.8
598.944	55256	1046.64	33276.9	32551.2	32223	32149.4	32144.9	32060.5	31991.7	31990	32049.6	31971.9	31906.7	31863.3	31795.2	31802.6	31877.5	31851.2	31851.2
599.183	55606.8	1034.25	33569.2	32781.7	32405.1	32502.2	32418.9	32160.7	32238.8	32276	32134.4	32218.5	32253.8	32168	32196.6	32211.5	32068.5	32027.9	32027.9
599.421	55481.6	1036.58	33520.9	32631.1	32547.3	32231.6	32259.9	32273.8	32148.4	32262.4	32064.3	32168.9	32120.1	32072.8	32146	32078.7	32061.2	32029.4	32029.4
599.66	55382.9	1038.14	33464.5	32630.4	32436.8	32181.4	32400.9	32247.2	32198.4	32204.4	32127.4	32057.1	32040.6	32163.6	32123	32059	32069.2	32053.4	32053.4
599.898	54986.2	1036	33357.3	32470.8	32277.6	32172.1	32168.4	32049.1	31987.5	31991.7	31973.3	31925.6	31983	31829.7	31800.1	31810.1	31826.2	31879.8	31879.8
600.136	55379.8	1046.24	33596	32643.8	32509.6	32524.5	32251	32245.7	32319.3	32084.7	32148.3	32211.7	32180.1	32011.8	32120.3	32200.1	32039.6	32122.1	32122.1
600.375	55087.5	1036.82	33382.4	32555.3	32304.5	32288.7	32308.7	32266.1	32104.1	32064.5	32013	32074.7	32042.1	31985.3	31985.7	31982	31843.8	31966.8	31966.8
600.613	55049	1042.8	33357	32687.9	32215.8	32268.3	32262	32149.7	32122	32108.4	32083	32134.2	32015.8	32042	31924.4	32037.3	31958.4	32058.5	32058.5
600.851	55059.1	1040.06	33302.7	32499.5	32320.5	32235.2	32143.1	32171.4	32179.8	32064	32083.5	32120.3	31894.7	31993.5	31938.5	31986.9	31975.5	31913	31913
601.089	54978.2	1046.8	33145.5	32393.7	32274	32099.7	32137.3	32030.2	31843.9	32014.1	31927.2	31845.7	31931.2	31916.6	31818.2	31789.7	31800	31900.9	31900.9
601.327	54932	1030.78	33130.6	32289	32130.7	31944.1	31920.2	31797.3	31848.9	31953.8	31810.3	31870.7	31877.8	31666.8	31861.7	31856.7	31688.7	31801.5	31801.5
601.565	54755.9	1033.96	33071.9	32335.3	32123.2	31956.5	31986.4	31802.7	31813.5	31787.2	31844.6	31736.4	31828.5	31571.3	31693.1	31730.6	31643.5	31720.5	31720.5
601.803	54790.1	1048.4	33070.4	32293.2	31976.3	31961	31810.2	31900	31862.7	31854.7	31780.7	31758.9	31727.1	31844.9	31736.7	31655.4	31730.7	31676.9	31676.9
602.041	54730.8	1041.03	33146.5	32286.9	32110	32146	31985.7	31919.7	31857.3	31811.6	31800.2	31736.1	31678.2	31840.8	31782	31696.7	31730.4	31770.4	31770.4
602.279	54477.6	1038.32	33036.3	32175.3	31925.5	31944.7	31867	31811.9	31806.2	31760.2	31737.3	31732.5	31738.3	31691.3	31891.4	31639.7	31629.8	31545.8	31545.8
602.516	54285.6	1041.32	32964.4	32101.5	31796.5	31883.9	31904.8	31831.2	31780.9	31642.8	31582.5	31639	31644.7	31675.3	31577.2	31611	31421.5	31608.2	31608.2
602.754	54336.8	1034.06	33064.7	32077	32095.8	31938.4	31740.2	31726.2	31844.9	31731.4	31663.2	31744	31731.4	31732	31641.6	31508.9	31553.3	31695.9	31695.9
602.992	54557.1	1041.66	33093.2	32217.7	32084.1	31984.5	31959.7	31971.6	31782.4	31761.7	31865.6	31817	31767	31743.1	31850.3	31856.8	31762.4	31775.6	31775.6
603.229	54359.2	1051.9	32906.1	32215.2	31922.6	31829.6	31958	31910.7	31758.3	31702.4	31791.6	31592.1	31602.9	31677.3	31533	31576.9	31540.2	31617.3	31617.3
603.467	54337.9	1043.86	32893.4	32039.5	32036.3	31864.7	31893.9	31662.8	31720.4	31681.4	31693	31608.7	31698.1	31521.7	31597.1	31507.7	31590.7	31363.6	31363.6
603.704	54050.7	1039.54	32651.1	31898.8	31912.6	31628.1	31843.1	31659.5	31733.3	31520.5	31653.8	31516.5	31561.9	31452.4	31503.7	31460.7	31438.8	31454.7	31454.7
603.942	53791.1	1034.44	32620.6	31761.7	31737.8	31628.8	31586.5	31564.6	31617.4	31513.2	31386.8	31464.1	31463.3	31479.5	31537.1	31388.4	31391.7	31395.2	31395.2
604.179	53754.5	1035.04	32630.4	31881.4	31692.2	31757.2	31543.8	31574	31526.3	31475.1	31563.1	31522.3	31487.2	31502.6	31475	31386.8	31405.7	31365.9	31365.9
604.417	53718.8	1026.22	32691.3	31880.8	31762	31747.6	31571	31549.7	31452.7	31538.1	31551.1	31511.1	31469.3	31483.7	31446.4	31298.7	31429.6	31294.2	31294.2
604.654	53347.8	1034.72	32513.8	31681.4	31538.9	31497.9	31384.3	31414.3	31436.8	31425.3	31354.2	31355.2	31217	31295.5	31289.5	31273.5	31329.6	31238.6	31238.6
604.891	53249.3	1041.98	32364.6	31684.8	31588.5	31494	31404.3	31391.3	31347.1	31277.3	31192.9	31239.9	31251	31263.9	31146.4	31119.4	31283.8	31126.2	31126.2
605.128	53178	1036.32	32374.2	31662.4	31711.5	31550.5	31508.4	31334.4	31279.2	31419.3	31299.8	31217.5	31356.1	31343.8	31218.7	31160.8	31283.6	31212.7	31212.7
605.366	53074.3	1037.4	32368.7	31749.9	31623.1	31434.5	31413	31594.3	31403.4	31409.3	31320	31291.7	31156	31259	31318.5	31310.7	31182.9	31158.6	31158.6
605.603	52953.9	1033.92	32343.7	31751.6	31470.2	31403	31361.1	31260.8	31270.7	31188.8	31142.5	31154.1	31116.1	31170.5	31175.7	31204.7	31200.2	31089.3	31089.3
605.84	52890.2	1032.65	32321.7	31521.2	31450.9	31392	31422.4	31317.4	31265.9	31129.2	31150.9	31107.3	31218.4	31133.8	31250.7	31215.6	31227.8	31105.4	31105.4
606.077	52871.3	1038.36	32309.7	31748.2	31515.3	31277.7	31494	31402.7	31205.2	31274.6	31103.4	31260.7	31259.3	31247.3	31197.8	31212.2	31159.4	31124.5	31124.5
606.314	52726.3	1031.58	32161.2	31539.6	31390.2	31319.9	31224.7	31072.3	31133.5	31159.9	31048.6	31093.7	30991.3	31079.7	31056.3	30971	30982.6	31001.6	31001.6
606.55	52451.2	1040.98	31998	31317.6	31295.3	31191.4	31087.7	30871.8	30847.9	30880	30854.8	30915.8	30869.5	30814	30766.7	30891.9	30966.5	30983.1	30983.1
606.787	52539	1037.28	32024.7	31370.4	31152.8	31141.4	30952.9	31036.9	30906.8	30847.3	30880.7	30924.7	30834.5	30943.2	30924.2	30822.3	30729.3	30795.7	30795.7
607.024	52127.1	1039.02	31694.2	31032.2	31010.5	30924.6	30724.9	30707.4	30780.7	30712.1	30673.9	30719.6	30671.5	30665	30668.3	30596.2	30554.8	30654.4	30654.4
607.261	52442.3	1041.18	31927.3	31298.6	31208.7	31080.6	30885.3	31030.3	30863	30928.8	30861.9	30881.2	30855.8	30773.4	30919.6	30718.1	30808	30624.4	30624.4
607.497	51833.8	1040.88	31522.6	31014.8	30846.6	30599.9	30592.5	30662.2	30607	30456.2	30515.1	30400.2	30469.1	30471.2	30425.5	30453.1	30331.6	30479.2	30479.2
607.734	51895.5	1029.76	31600.9	30976.1	30809.4	30698.7	30753.9	30672.5	30676.3	30535.1	30624.2	30594.8	30544.3	30391.8	30634.6	30513.5	30550.2	30543.8	30543.8
607.971	51579.1	1044.38	31446.6	30883.8	30703.8	30471.2	30589.1	30637	30480.9	30387.6	30361.6	30548.1	30486.2	30522.6	30434.1	30455.9	30482.5	30293.9	30293.9
608.207	51556.7	1035.06	31547.2	30945	30783.3	30725.3	30594.2	30536.6	30520	30566.7	30601	30534.3	30433.8	30562.2	30386.7	30521.7	30444.5	30428.2	30428.2
608.443	51133.6	1037.36	31296.2	30556.6	30446	30435.9	30374.8	30414.7	30310.8	30305.6	30346.1	30295.1	30265.6	30310.2	30191.8	30197.5	30137.8	30177.5	30177.5
608.68	51036.4	1037.24	31174.2	30561.4	30465.4	30317.9	30363	30223.9	30207	30186.9	30176.7	30228.2	30138.7	30143.3	30024.5	30208.9	30194.3	30168.7	30168.7
608.916	50958.1	1037.82	31212.4	30541.2	30426	30309.4	30265.1	30282.5	30251	30148.6	30275.5	30184.4	30096.7	30199.2	30065.1	30141.8	30095.2	30051.7	30051.7
609.153	51157	1041.89	31255.9	30645.6	30511.2	30399.9	30445.2	30444.9	30282.3	30269.8	30246.6	30305.1	30219.1	30132.1	30180.3	30182.6	30119.8	30128.3	30128.3
609.389	50645.8	1039.46	30889.6	30330.5	30085.6	30099.7	30186.6	30025.8	29961	30062.5	29867.9	29917.5	30049.1	29952.3	29919.7	29785.5	29907.9	29722.6	29722.6
609.625	50453.8	1045.36	30782.2	30195.9	30046.3	29977.5	29991.9	29958.5	29936.7	29957.8	29852.9	30003.5	29892.5	29738	29894.3	29873	29910.5	29781.8	29781.8
609.861	50501.2	1035.58	30812	30303.1	30027.7	30010.6	30042.2	30032	29930.7	29846.1	29889.4	30050.5	29877.4	29860.7	29889	29758.2	29817	29784.7	29784.7
610.097	50176.3	1042.1	30607.4	30095.9	29846.5	29877.9	29626.9	29700.6	29707.6	29672.9	29773.7	29659.8	29705.8	29560.9	29677.8	29425.9	29581.3	29585	29585
610.333	50189.8	1039.48	30656.8	29890.8	29778.7	29751.6	29647.5	29704	29701.1	29589.8	29478.6	29545.6	29423.1	29469.6	29446.9	29463.4	29397.4	29477.4	29477.4
610.569	50055.2	1035.04	30525.8	29854.4	29678.5	29609.2	29551.5	29514.2	29606.2	29612.3	29564.4	29492.6	29533.7	29473.3	29434.9	29371.5	29448.1	29376	29376
610.805	49745	1049.24	30280.9	29721.2	29530.5	29500.5	29414	29392.5	29460.5	29464	29376.8	29361.7	29302	29355.2	29348.3	29316.5	29303.2	29288.7	29288.7
611.041	49607	1035.4	30254.3	29763.5	29578.6	29500.4	29415.2	29374.4	29368	29291.1	29317	29309	29177.5	29163.7	29161	29190.5	29265.9	29171.6	29171.6
611.277	49611.7	1043.82	30103.4	29579.3	29440.7	29414.8	29405	29342.5	29248.4	29335.5	29324.6	29191.1	29213.8	29107.4	29143.7	29167	29098.6	29154.5	29154.5
611.512	49250.6	1043.42	29899.2	29267.5	29250.6	29189.2	29089.1	29014	28970.9	29010.8	28913.2	28845.3	29031.5	28806.6	28937.1	28932.9	28891.1	28896	28896
611.748	49265.4	1039.22	29900.5	29377.6	29190.9	29061.3	29098.3	29064.4	28920.5	28937.5	28930	28978.2	28852.3	28811.5	28897.9	28767.9	28786.1	28767.9	28767.9
611.984	48887.5	1034.54	29689.3	29018.8	28907.9	28702.5	28750.2	28764.3	28878.5	28840.7	28662.8	28730.9	28660.9	28722	28735.7	28594.7	28616.5	28537.8	28537.8
612.219	48926.3	1037.57	29669.9	29022.8	29032.3	28902.6	28895.5	28846.2	28757.7	28815	28863.5	28824.1	28694.2	28746.4	28806.7	28810.6	28756.5	28587.5	28587.5
612.455	48398.4	1042.08	29415.9	28873.8	28701.9	28663.6	28506.6	28477.5	28551.6	28466.7	28431.8	28409.6	28369.2	28362.3	28430.4	28430.6	28485.2	28404.1	28404.1
612.69	48310.9	1037.58	29441	28938.4	28739	28590.8	28662.8	28589.9	28529.5	28549.5	28525	28567.3	28472.3	28531.9	28399.6	28473.6	28432.8	28483.7	28483.7
612.926	48344.6	1035.12	29442.8	28866	28754.1	28722.5	28578.3	28684.8	28593.6	28612.3	28603.1	28491.9	28525.3	28518.5	28466.5	28486.5	28468	28423.4	28423.4
613.161	47799	1034.86	29011.9	28691.7	28408.3	28262.2	28270.1	28331.8	28230.6	28195.6	28154.5	28176.1	28226.5	28110.7	28081	28080.9	28182.3	28139.4	28139.4
613.397	48001.5	1042.16	29173.7	28546.3	28459.4	28347.7	28417.8	28374.4	28280.5	28339.2	28189.9	28245.2	28128.7	28229.2	28102.3	28165.5	28176.9	28165.2	28165.2
613.632	47569.4	1040.19	28839.6	28341.6	28181.7	28140	28141.3	28300.4	28001.2	28003.9	28021.8	27982.5	27926.2	27957.4	28025.2	27952.8	27947.8	27942.7	27942.7
613.867	47444.2	1044.06	28835.7	28375.9	28227.2	28140.2	28064.4	28134.6	28135	28094.3	27951.6	27946.1	27917	27986.4	27965.1	28040.5	27989.4	27847.1	27847.1
614.102	47215.2	1033.68	28648	28281.9	28076.1	28119	27939.5	28024.1	27984.3	27933.1	27858.1	27877.7	27878.7	27817.6	27856.9	27924	27688.7	27802.5	27802.5
614.337	46914.6	1038.56	28583.7	28025.4	27933.9	27815.8	27757.6	27661.7	27821.8	27715.3	27660.4	27742.9	27493.4	27600.7	27491.5	27626.4	27544.1	27542.1	27542.1
614.572	46566.4	1032.98	28241.7	27796.4	27711.5	27417.3	27453.6	27565.2	27528.5	27465.7	27465	27417.9	27425.8	27515.9	27365.8	27539.8	27386.8	27413.3	27413.3
614.808	46578	1036.64	28204.5	27846.7	27742.9	27631.9	27581.9	27544.5	27466.5	27491.8	27450.7	27574	27458.8	27579.6	27447.3	27449.1	27522	27507.7	27507.7
615.042	46258.7	1039.51	28183.7	27743.1	27652	27531.5	27443.5	27519	27492.5	27376.5	27477.4	27388.2	27473.3	27442	27327	27412.7	27424	27357.1	27357.1
615.277	46079.4	1037.58	28005	27662.8	27485.5	27304.2	27297.7	27370.8	27164.8	27241.7	27237.5	27267.9	27351.6	27138.7	27197.4	27029.7	27151.8	27249.6	27249.6
615.512	46114.9	1033.72	27908.6	27606.2	27377.5	27320	27265.8	27238.4	27270.7	27033.2	27130.2	27201.8	27163.1	27007.4	27087.4	27102.8	27123.2	27049.1	27049.1
615.747	45529.6	1034.26	27545.9	27099.9	27048	26962	26802.2	26967.4	26830.8	26868	26803.3	26833.7	26692.5	26767.2	26587.8	26764.9	26821.7	26780.8	26780.8
615.982	45585	1043.5	27567.5	27098	27045.8	26868.3	26815.1	26785.5	26806.3	26861.6	26836.3	26728.2	26684.9	26738	26679.5	26730.3	26711.6	26697.6	26697.6
616.216	45404.7	1047.16	27494.7	27105.2	27021.3	26908	26840.9	26856.3	26829.3	26832.6	26777.4	26771.6	26663	26836.6	26873.1	26664.3	26715.2	26660.6	26660.6
616.451	45093.4	1029.36	27377.9	26983	26890.8	26692.5	26679.6	26759.6	26850.2	26630.2	26691.5	26666.1	26709.7	26662.8	26620.9	26676.5	26516.2	26702.9	26702.9
616.686	44743.4	1034.16	27193.1	26780.5	26642.1	26578.8	26511.9	26548.1	26446.3	26449.6	26545	26350.7	26344.5	26404.7	26288.4	26386.2	26461.5	26304.8	26304.8
616.92	44641.2	1032.2	27092.7	26715.2	26546.2	26474.8	26585.7	26523.6	26389.1	26375.1	26337.6	26367.9	26363.5	26354.4	26374.6	26391.8	26362.2	26273	26273
617.155	44460.3	1032.16	27088	26633.9	26429	26365.8	26449.5	26297.5	26285	26321.6	26235.1	26217.7	26277.2	26298.6	26219.6	26141	26200.6	26176.4	26176.4
617.389	44278	1035.76	26920.2	26337.6	26241.8	26178.5	26297.4	26172.3	26092.1	26199.7	26140.5	26187.3	26059.1	26153.3	25993.7	26115.9	26153.6	26134.4	26134.4
617.624	43965.2	1035.6	26654.8	26111.6	26140.9	25976.7	26103.1	25892.7	25903.3	25980	26002.7	25930.9	25897.6	25836.1	25887.1	25859.6	25837.6	25746.9	25746.9
617.858	43889.5	1036.84	26558.9	26258.5	26042.7	25970	26005.8	25980.6	25941.3	25871.8	25859.9	25886.3	25762.4	25905.7	25758.4	25879.7	25894.8	25828.2	25828.2
618.092	43579.1	1048.4	26418.9	26126.4	25890.3	25854.2	25802.2	25759	25719.4	25706.9	25707.9	25693.5	25662.9	25666	25771.1	25665.8	25688.7	25647.4	25647.4
618.326	43383.6	1042.36	26383.7	25963.6	25788	25693.2	25808.9	25731.9	25779.5	25734.5	25641.7	25702.7	25673.9	25777.2	25652.5	25672.1	25629.1	25617.1	25617.1
618.561	43225.4	1037.16	26309.1	25923.7	25655.2	25740.3	25639.9	25755.4	25685.7	25596	25513.8	25603.1	25623.4	25718.4	25535.5	25627	25544.8	25579.7	25579.7
618.795	42872.6	1045.9	26065.2	25628.3	25674.8	25529.3	25462.6	25530.3	25477	25433.9	25344.6	25397.2	25460.9	25413	25417.3	25495.7	25321.7	25319.8	25319.8
619.029	42716.4	1036.86	25977.5	25616	25544.9	25501.1	25443	25417.9	25228.1	25270.4	25249.9	25363.7	25261.9	25210.2	25275.9	25317.7	25264.1	25179.7	25179.7
619.263	42527.4	1040	25912.1	25431.1	25332.8	25369.7	25258.1	25257.8	25163.6	25286.3	25125.2	25174.9	25088.1	25024.4	25143.5	25064.3	25097.3	25033.7	25033.7
619.497	42313.9	1036.48	25733.7	25326.4	25213.2	25113.9	25163.1	25079.3	25092.6	25083	25101.6	24966.4	24995.2	25043.1	24974.2	25045.7	24969.1	24874	24874
619.731	42233.2	1038.96	25597.7	25257.7	25080.3	24953.1	25091.7	24965.7	24976.5	24871.2	24954.7	24947.4	24853	24966.3	24801.2	24876	24821.6	24835.6	24835.6
619.964	42071.9	1041.08	25549.6	25220.7	25166.6	25093.9	24900	24950.3	24898.9	24852.6	24864	24848.1	24789.7	24883.7	24857.2	24859.5	24783.9	24768.8	24768.8
620.198	41945.4	1042.12	25485	24972.1	25058.9	24904.9	25007.2	24967.6	24754.2	24862.8	24780.3	24762.1	24714.9	24725.1	24699.1	24734.3	24721.8	24822.2	24822.2
620.432	41581.6	1044.82	25296.8	24957.3	24867.9	24751.9	24533.7	24583.9	24687.1	24582.1	24623.1	24678.3	24622.9	24607.9	24604.9	24520.4	24555.2	24544.7	24544.7
620.666	41314.7	1038.6	25101.3	24589.6	24716.4	24528.8	24465.6	24510.5	24442.3	24444	24463.6	24466.7	24448.8	24493.5	24421.8	24489.6	24428.3	24320.4	24320.4
620.899	41196.8	1037.28	25029	24748.8	24616.9	24512.2	24441.2	24435.2	24464.7	24498.1	24512.1	24437.5	24382.2	24393.2	24435.2	24275.5	24380.6	24270.7	24270.7
621.133	41103.3	1039.76	24918.6	24576.7	24461.1	24341.3	24356.7	24320.1	24354.3	24372	24211.1	24322.4	24223.9	24237.9	24236	24130.5	24171.6	24192.5	24192.5
621.366	40933.7	1036.46	24868.7	24416.1	24376.1	24348.2	24348.6	24307.9	24142.8	24221.3	24173	24252.1	24210.2	24139.9	24083.3	24146.4	24122.7	24093.6	24093.6
621.6	40753.2	1039.66	24709.6	24342.3	24220	24279.5	24172.8	24079.2	24103.5	24071.1	24075.7	24196.6	24129.3	24129.9	24099.6	24114.6	24127.3	24078.9	24078.9
621.833	40573.2	1043.52	24563.7	24376.8	24113.6	23994.1	24046.4	24051.3	24102.4	24000	24012	23996.7	24036.6	24044.6	24141.5	23883.2	23980.1	23920.4	23920.4
622.067	40227.4	1040.62	24435.6	24052.2	23994.6	23976.8	24031.1	23892	23828.6	23844.6	23839.7	23798.8	23756.4	23720	23793.7	23851.8	23836.1	23893.7	23893.7
622.3	40143.8	1050.64	24335.6	23924.4	23907.1	23901.9	23873.9	23858.9	23839.9	23717.7	23779.6	23780.5	23630.2	23582	23519.4	23702.8	23636.7	23608.3	23608.3
622.533	40090.3	1040.5	24324	23921.5	23871.2	23701	23769.1	23718.3	23744.5	23783.8	23684.1	23654.6	23592.2	23536.5	23704.1	23644.9	23679.2	23524.2	23524.2
622.766	40056.6	1040.54	24222.8	23890.5	23781.7	23736.1	23666.8	23578.1	23659.9	23684.9	23691.7	23570.7	23646.1	23581.1	23613.5	23536.2	23590.2	23550.6	23550.6
623	39700.1	1036.18	23931.6	23774.7	23596.2	23492.4	23365.2	23451.3	23376.5	23385.9	23351	23263.2	23428.7	23295	23327.6	23348.3	23395.6	23353.6	23353.6
623.233	39479.6	1034.92	23892.7	23584.7	23452.3	23402.3	23388.7	23371.4	23297.2	23274.1	23357.3	23285.3	23325.8	23316.1	23341.4	23231.7	23240.5	23266.7	23266.7
623.466	39332.2	1036.02	23802.1	23357.5	23360.4	23205.2	23242.8	23352.2	23247.6	23232.1	23352.6	23173.2	23161.8	23103.7	23197	23191.1	23117.2	23179.5	23179.5
623.699	39246.6	1032.72	23692	23312.3	23366.9	23174.1	23238.8	23231.7	23154.3	23188	23148.5	23185.7	23138	23213.7	23059.6	23139.7	23117	23143	23143
623.932	39087.6	1035.42	23687.1	23341.8	23331.8	23184.4	23244.3	23107.2	23167.6	23086.4	23172.2	23073.5	23080.5	23101.8	22985.6	23106.5	23037	23024.4	23024.4
624.165	39018.3	1039.68	23586.3	23253.1	23101.3	23125.2	23111.6	22958.1	23048.4	23099.6	23052	22934	23023.2	22941.9	23036.7	23050.5	22960.5	22884.1	22884.1
624.397	38500.5	1035.31	23340.6	22975.6	22857.4	22921.5	22896.4	22875.6	22819.6	22844.1	22738.8	22733.4	22724.8	22722.4	22704	22653.8	22701.5	22737.3	22737.3
624.63	38696.5	1042.72	23362.2	23105.2	22963.9	22979.4	22944.6	22818.2	22847.4	22859.5	22810.9	22807.3	22801.3	22709.2	22740.2	22692.6	22764	22678.7	22678.7
624.863	38536.5	1038.42	23262.8	23006.7	22776.5	22727.6	22774	22756.9	22762.2	22677.6	22681.6	22650.1	22677.8	22714.2	22614.9	22553	22621.8	22621.4	22621.4
625.096	38222.6	1036.12	23095.8	22690.9	22538.7	22627.3	22554.3	22522.2	22551.1	22588.3	22542.9	22567.5	22515.5	22559.7	22580.8	22472.3	22456.9	22382.3	22382.3
625.328	38037.9	1035.96	22991	22785	22530.3	22592.4	22576.8	22429.7	22490.4	22492.6	22498.9	22369.9	22474.5	22414.2	22491.4	22377	22473.9	22336.3	22336.3
625.561	37685.6	1035.08	22795.3	22543.1	22435.1	22360.8	22383.7	22238.9	22271.2	22327.1	22247.8	22164.7	22187.3	22229.4	22282.9	22180	22195.9	22204.1	22204.1
625.793	37762.7	1029.98	22868.2	22639.6	22431	22401.2	22404.1	22385.6	22349.3	22241.8	22339.3	22238.6	22206.3	22259.4	22345.8	22247	22295.8	22280.8	22280.8
626.026	37477.1	1042.58	22660.3	22354.9	22303.5	22165.4	22201.7	22161.8	22218.7	22187.1	22146.8	22093.5	21998.1	22053.9	22025.5	21989	22147.9	21943.8	21943.8
626.258	37481.9	1042.28	22654.2	22301.2	22307.6	22105.9	22114.7	22216.7	22202	22208.7	22138.9	22147.4	22204.9	22121.7	22066.7	22154.9	22019.6	22137.9	22137.9
626.49	37486.8	1050.24	22643.6	22390.6	22204.7	22180.4	22089.6	22140.9	22109.6	22149.2	21942.2	22071	22086.8	22012.1	22125	22144.8	22016.5	22073.4	22073.4
626.723	36998.7	1042.26	22322.5	22138.1	22104.1	21906.9	21836.5	21873.3	21876.3	21837.5	21816.9	21756.7	21753.9	21673.3	21790.7	21859.1	21720.7	21780.4	21780.4
626.955	37044.1	1038.08	22378.2	22046	22072.4	21955.3	21966.3	21973.5	21829.4	21757.4	21748	21836.2	21708.8	21928.6	21837.1	21824.1	21814.4	21861	21861
627.187	36775.5	1029.74	22213.7	21855.4	21831.1	21712.6	21814.6	21772.6	21764.6	21689.7	21839.4	21621.5	21674.4	21697.1	21690.1	21556.2	21559.7	21641	21641
627.419	36622.3	1032.07	22159.8	21886.2	21860.8	21704.5	21649	21784.3	21610.3	21620.2	21563.8	21713.2	21492.3	21546	21663.4	21613.4	21555.8	21600.8	21600.8
627.651	36528	1036.22	22108.8	21794.6	21640.4	21760.8	21690.8	21668.8	21583.8	21710.1	21572.8	21525.8	21500.3	21493.2	21556.8	21629.2	21375.1	21481.2	21481.2
627.884	36238.8	1040.22	22007.7	21676.9	21548.4	21525.2	21536.8	21541	21501.7	21473.6	21434.8	21390.8	21395.8	21417.3	21283.5	21344.7	21324	21278	21278
628.115	36164	1037.58	21854.1	21460.2	21425	21418.8	21327.6	21397	21445.7	21411.2	21315.6	21406.2	21359.6	21329.7	21238.6	21297.6	21318.8	21330.4	21330.4
628.347	35979.4	1034.96	21756.1	21431.1	21343.9	21289.5	21270.9	21351.8	21270.1	21370.9	21289.5	21280	21242.1	21193.1	21248.9	21265.9	21343.5	21203.1	21203.1
628.579	35781.9	1041.72	21644.4	21334	21292.9	21162.3	21251.1	21302.8	21243.9	21229.1	21212.7	21162.7	21063.5	21182.1	21107.7	21193.1	21306.7	21094.5	21094.5
628.811	35582.4	1033.42	21585.6	21317.2	21203.8	21223.1	21249.4	21037.6	21128.3	21035.8	21001	21079.5	21121.2	21038.2	21122.2	21217.2	21060.4	21069.2	21069.2
629.043	35522.7	1033.04	21575.5	21299.4	21112.4	21159.3	21104.1	20999	21128.5	21017.9	21022.7	20918	21064	21091.7	21038.1	21007	21083.7	21012.1	21012.1
629.275	35448	1037.6	21538.1	21246	21219.1	21142.7	21098.1	21052.6	21045.3	20985.9	20958.5	21068.7	20922.8	21015.1	20905.7	20901.3	20900.9	20898.3	20898.3
629.506	35254	1037.88	21367.7	20964.5	21010.8	20850.6	20901.2	20953.6	20822.4	20774.6	20750.8	20917.2	20883.6	20810.6	20789.2	20787.8	20783.6	20794.8	20794.8
629.738	34995.1	1043.54	21183.7	20831.3	20975.9	20748.7	20697.1	20812.6	20788.9	20698.1	20662.3	20634.7	20778.3	20655.3	20683.3	20674.1	20708.3	20663.8	20663.8
629.969	35022.3	1040.26	21184	20927.9	20895.5	20791	20816	20852.1	20790.7	20723.5	20746.7	20715.7	20702.4	20711	20724.6	20696.5	20796.1	20665.2	20665.2
630.201	34601.3	1036.58	20990.2	20825	20712.1	20688.3	20644.3	20618.5	20555.1	20697.1	20509.9	20478.3	20575.1	20506.1	20472.8	20566.7	20548.6	20522.5	20522.5
630.432	34479.8	1040.64	20961.7	20668.7	20576.2	20612.9	20542.2	20593.9	20451.2	20489.7	20495.1	20534.9	20413.1	20465.7	20331.4	20402.7	20360.3	20461.7	20461.7
630.664	34493.7	1031.88	21010.1	20720.1	20652.3	20658.7	20626.9	20526.9	20544.1	20467.2	20426.3	20530.7	20474.7	20545.9	20449.1	20332	20439.1	20435.5	20435.5
630.895	34090	1037.08	20746.6	20446.1	20480.3	20471.1	20470.1	20373.5	20329.8	20291.2	20339.7	20311.5	20235.5	20261.3	20261.5	20305.3	20260.5	20224.7	20224.7
631.126	34203.7	1037.96	20776.6	20603.7	20549.6	20491.1	20544.5	20360.9	20427.7	20394.7	20323.5	20321.7	20368.1	20329.5	20371.9	20316.1	20315.8	20276.1	20276.1
631.358	34022	1033.4	20801.2	20514.6	20387	20391.3	20353.2	20389.8	20293	20270.4	20250.6	20169.2	20185	20159.6	20163.2	20110.8	20161.5	20204	20204
631.589	33897.6	1034.46	20713.9	20459.1	20324	20318.7	20283.5	20133.1	20365.3	20228.3	20284.1	20159.5	20153.1	20232.2	20248.5	20162.7	20189.9	20132.9	20132.9
631.82	33656	1031.39	20577.1	20259.6	20267.2	20233.4	20184.4	20101.8	20085.3	20103	19950.4	20067.2	19986.2	19965.4	20026.4	19923.8	19999.6	20018.2	20018.2
632.051	33576.7	1028.8	20516	20207.5	20178.3	20054.7	20052.9	20002.3	20054.4	20052.6	20008.7	19983.1	19956.5	20034.1	20013.9	19976.7	19863.9	19999.1	19999.1
632.282	33392.6	1041.78	20226.4	20077.4	19956	19979.8	19918.8	19861.2	19836.3	19734.6	19858.8	19863.8	19810.6	19873.6	19945	19881	19744.6	19826.6	19826.6
632.513	33144.5	1037	20119.1	19934.8	19825.8	19764	19757.8	19827.4	19762	19757.3	19733.6	19757.6	19723.6	19753.4	19739.6	19674.2	19680	19734.8	19734.8
632.744	33121.1	1036.18	20116.9	19986.4	19856.7	19739.9	19755.6	19763.2	19841.9	19754.2	19803.5	19628.4	19711.8	19723.8	19773.4	19692.9	19698.2	19667.5	19667.5
632.975	32917.1	1040.8	20013	19916.9	19713.1	19698.9	19716.1	19756.4	19665.7	19632.3	19696.5	19685.7	19692.1	19657.5	19678.1	19635.5	19686.1	19585.1	19585.1
633.206	32755.6	1043.6	20029.6	19735.3	19688.3	19602.3	19585.7	19610.3	19629.7	19643.7	19557.3	19612.8	19611.3	19720.1	19598.3	19658.7	19573.5	19496.9	19496.9
633.436	32663.9	1038.18	19922.2	19732.9	19574.4	19673	19620.6	19686.8	19702.4	19557.3	19517.4	19475.2	19538.4	19580.8	19552.4	19523	19620.4	19561	19561
633.667	32526.1	1034.66	19826.7	19686	19594.2	19472	19490.2	19519.3	19536.6	19378.6	19488	19393.9	19439.1	19431.4	19425.3	19498	19367.6	19467.6	19467.6
633.898	32210.2	1028.2	19740.3	19500.9	19456.1	19353.3	19325.1	19421.5	19405.7	19329.5	19291.1	19235.5	19366.7	19254.3	19284.3	19297.5	19329.3	19328.5	19328.5
634.128	32238	1033.66	19725.9	19467.9	19452.9	19430.9	19433.7	19333.1	19423.4	19296.5	19361.3	19442.2	19238.1	19297.1	19306.9	19254.3	19327.2	19340.5	19340.5
634.359	32023.8	1034.92	19576	19278.1	19235.9	19336.1	19308.2	19201.7	19216.9	19176.5	19175.9	19108.5	19086.5	19162.3	19095.9	19204.3	19092.7	19157.9	19157.9
634.589	32126.4	1034.04	19617.1	19347.2	19380	19220.4	19227.2	19220.8	19197.8	19134.8	19095.6	19136.6	19182	19220.6	19140.6	19187.5	19150.4	19140.8	19140.8
634.82	31841.2	1040.2	19509	19198.4	19282.6	19149.4	19167.2	19118.4	19071.1	19068	19215.6	19026.6	19146.6	19000.4	19081.6	19064.6	18966.6	19072	19072
635.05	31820.1	1037.24	19442.7	19248.3	19118.7	19090.3	19023.8	19130.3	19221.9	19068.4	18946.5	19011.3	19071.9	18999.1	18940.5	19030.1	18938.5	18953.9	18953.9
635.281	31443.9	1037.18	19250.4	19118.2	19026.3	18951.1	18933.4	18983.5	18813.2	18840.4	18873.8	18893.1	18884.6	18809.2	18766.4	18821.9	18721	18815.8	18815.8
635.511	31474.9	1028.34	19212.6	19076.8	19013.2	19040	18995.6	18847.1	18867.8	18888.4	18864.2	18793.2	18838.2	18811.8	18758.2	18846.2	18822	18855.8	18855.8
635.741	31313	1041.5	19131.8	18904.6	18906.8	18862.8	18865.1	18750	18899.2	18795	18826.6	18755.2	18697	18753.2	18704.6	18752.8	18785.4	18797.8	18797.8
635.971	31123.1	1039.74	19030.3	18841.5	18766.4	18765.9	18652.1	18681.7	18754.9	18656.3	18634.7	18703.5	18625.7	18695.7	18574.1	18669.9	18613.5	18610.5	18610.5
636.201	30925.9	1040.66	18915.3	18697.9	18682.9	18593.9	18558.9	18574.5	18617.3	18508.7	18610.3	18529.9	18596.9	18594.6	18519.7	18480.1	18498.7	18576.3	18576.3
636.432	30976	1040.76	18858.8	18736.3	18773.8	18664.3	18686.5	18576.7	18602.9	18584.9	18512	18514.5	18557.3	18577.7	18522.9	18556.5	18569.7	18476.9	18476.9
636.662	30710.8	1050.98	18752	18556.2	18492.2	18526.2	18364.8	18318	18347.8	18364.8	18438.2	18252.8	18386	18294.4	18212	18381.2	18246.2	18357.6	18357.6
636.891	30475	1032.9	18601.4	18507.8	18351.4	18312.6	18317	18268.4	18334.2	18349.2	18209.9	18342.4	18365.6	18280	18236	18224.8	18217.2	18194	18194
637.121	30550.2	1046.98	18731.6	18622.8	18509.4	18397	18478	18444.8	18347.6	18368	18360	18302	18251.4	18405.4	18271.6	18341.6	18262.2	18299	18299
637.351	30157.7	1032.2	18520.1	18268.5	18247.6	18182.5	18165.8	18144.1	18254	18132.2	18067.2	18129	18169.8	18024	18129.1	18170.2	18156.4	18108.4	18108.4
637.581	30040.9	1035.28	18438.8	18181.7	18290.9	18244.9	18108.5	18108.9	18096.4	18030.1	17985.9	17994.7	18133.5	18061.5	18012.5	18029.4	18011.9	18058.9	18058.9
637.811	30071.6	1035.22	18457.8	18200.2	18184.5	18083.8	18137.8	18022.2	17990.6	18066.4	18016	17984.8	18032.6	17951.8	17978.2	17991.8	17913.4	18033	18033
638.041	29652.7	1029.12	18129.8	17971.9	18013.8	17893.6	17833.8	17810.4	17942.2	17820.4	17779.4	17813.8	17770.2	17752.2	17741.2	17758	17770.8	17794.3	17794.3
638.27	29749.7	1035.98	18231.4	18008.4	17980	17861.4	17905.2	17945.4	17851.6	17876.6	17867	17839.8	17839	17774.6	17903	17763.4	17878.4	17866.2	17866.2
638.5	29512.5	1027.9	18073.5	17844.2	17864.4	17739.6	17816.8	17761.2	17748	17775.4	17745.4	17740	17664.2	17658.6	17634.6	17624.4	17757.2	17670	17670
638.729	29430.3	1040.44	18033.1	17813.2	17773.4	17804.8	17773.8	17713.1	17772.2	17760.4	17631.6	17715	17665.1	17669.8	17614.8	17633.4	17537.6	17563.6	17563.6
638.959	29278.7	1048.53	18009.5	17839.1	17744.3	17719.1	17703.9	17629.9	17584.1	17588.6	17649.3	17652.1	17543.3	17673.1	17547.3	17550.5	17576.9	17539.7	17539.7
639.188	29061.5	1036.68	17844.4	17770.8	17631.4	17571	17447.4	17428.5	17402.6	17477.4	17466.6	17541.8	17433.8	17455.2	17416.8	17443.3	17480.8	17348.6	17348.6
639.418	28983.5	1042.4	17790.5	17594.9	17553.9	17546.7	17441.3	17501.1	17430.3	17416.9	17392.3	17393.5	17388.1	17393.1	17404.1	17323.5	17440.9	17339.5	17339.5
639.647	28847	1024.74	17707.9	17471.8	17435.7	17460	17452.9	17427.8	17422.4	17354.6	17339.6	17279.8	17388.6	17283.2	17388.6	17326.2	17324.8	17388.2	17388.2
639.876	28597.3	1028.08	17521.4	17427.1	17398.6	17361	17222.6	17243.2	17279	17314	17314.8	17282.6	17227.2	17240	17299.4	17204.6	17292.2	17185.8	17185.8
640.105	28560.3	1046.6	17561.6	17337.1	17334.3	17315.9	17321.5	17221.3	17276.7	17144.8	17231.7	17268.3	17225.1	17229.5	17204.7	17125.5	17184.9	17097.9	17097.9
640.335	28452.7	1035.14	17443.5	17341.5	17264.7	17136.5	17192.7	17198.1	17170.3	17175.3	17178.1	17162.7	17137.7	17145.9	17095.3	17069.1	17096.5	17081.9	17081.9
640.564	28276	1042.6	17358.9	17313	17074.8	17099.4	17059.6	17067	17060.6	17041.6	17035.2	16957.6	16982	16989.6	16878.2	17014.6	17045.2	17040.4	17040.4
640.793	28238.6	1044.94	17317.1	17109.3	17068.4	17054.8	17039.8	16968.6	17017.5	17033	16940	16906	16959.4	16971.8	16944	16953.4	16965.8	16998.4	16998.4
641.022	27961.3	1038.68	17204.5	17107.1	16975.5	16987.5	16849.3	16943.7	16900.5	16872.5	16905.3	16862.9	16776.7	16836.5	16814.3	16892.5	16832.9	16810.9	16810.9
641.251	27943.2	1032.62	17165.4	17028.7	17044.1	16892.9	16904.5	16996.3	16905.1	16920.1	16906.9	16853.7	16873.1	16855.5	16884.1	16868.1	16843.6	16863.1	16863.1
641.48	27841.8	1039.52	17133.4	16951.6	16885	16825.4	16814	16696	16870.6	16769.2	16842.6	16792	16755.6	16813.6	16810.4	16795.8	16798	16798.8	16798.8
641.708	27578.8	1049.8	16995.1	16753.8	16679.7	16741.9	16663.8	16672.5	16668.3	16725.5	16686.1	16745.3	16633.5	16633.7	16594.9	16581.7	16624.9	16658.1	16658.1
641.937	27558.6	1029.8	16949.2	16765.9	16726.7	16661.7	16682.1	16589.7	16650.5	16665.8	16676.1	16596.9	16657.1	16592.3	16535	16631.3	16599.3	16585.5	16585.5
642.166	27259.4	1032.42	16768	16616.2	16586.2	16536	16456.8	16571.6	16502.8	16422.2	16539.8	16512.4	16523.4	16478.6	16426	16340	16397.6	16379.6	16379.6
642.395	27333.1	1034.8	16773.6	16649.4	16540.4	16429.8	16516.2	16581.6	16504.1	16437.8	16568.6	16511.6	16414.4	16456.2	16486.6	16394.4	16399.4	16457.8	16457.8
642.623	27021.3	1033.62	16653.9	16396.1	16427.3	16353.7	16323.7	16370.1	16335.5	16275.9	16353.5	16259.3	16290.9	16261.1	16402.3	16314.1	16327.2	16306.3	16306.3
642.852	26924.1	1039.28	16541	16341.7	16262.5	16342.9	16301.5	16178.5	16298.3	16177.7	16239.5	16224.7	16191.5	16187.5	16223.9	16208.1	16181.1	16113.9	16113.9
643.08	26961.8	1041.38	16552.9	16364.7	16263.5	16322.1	16369.7	16244.3	16232.3	16232.9	16228.3	16240.5	16186.9	16199.1	16147.7	16102.7	16221.3	16103.5	16103.5
643.309	26746.1	1037.26	16399.4	16330	16170.4	16120	16118.4	16102.6	16117.4	16085.6	16094.4	16067.2	16004.4	15984	15950.2	15919.4	16012	16073.8	16073.8
643.537	26576.3	1037.96	16264.2	16040	16176.6	16156.4	16040.2	16001.6	16032.6	15915.2	15953	15905	16048	15945.8	15977.2	15881.4	15936.4	15932	15932
643.766	26581.6	1034.92	16305.2	16106.8	16104.6	16028	16024.6	15913.2	16072	15970.4	15979	15890	15979.6	15894.4	16022.2	15923.4	15895.2	15929.4	15929.4
643.994	26197.5	1034.68	16006.5	15888.2	15916	15838.6	15879.4	15739.8	15763.6	15861.4	15766	15781.4	15867.4	15775.8	15799.6	15777	15736.8	15670	15670
644.222	26038.4	1042.52	15996.7	15835.1	15828.3	15778.9	15681.1	15799.4	15730.5	15750.7	15664.3	15651.1	15775.9	15716.7	15731.5	15664.7	15748.1	15744.7	15744.7
644.45	26121.3	1038.7	16036.3	15804.9	15883.1	15838.1	15803.9	15706.9	15757.7	15730.9	15733.1	15688.7	15701.3	15700.9	15693.9	15740.3	15679.9	15829.3	15829.3
644.679	25887.4	1041.88	15909.7	15777.8	15709.2	15698.6	15579.5	15682	15666.5	15626.4	15636.2	15588.6	15618.2	15548.2	15550.8	15664.6	15616.2	15622	15622
644.907	25657.7	1039.12	15692.6	15587.9	15540.1	15527.3	15479.9	15498.7	15482.3	15574.5	15473.1	15408.1	15483.5	15434.3	15484.4	15448.1	15463.3	15386.1	15386.1
645.135	25601.5	1037	15733.2	15564.6	15540.8	15512	15478.4	15474.6	15451.4	15556	15512	15372.2	15488	15505.4	15325.2	15409.2	15388.8	15552.4	15552.4
645.363	25419.8	1037.6	15661.1	15420	15447.6	15323	15384	15415.6	15308.4	15363.9	15340.8	15260.4	15290.6	15306.8	15342.4	15381.2	15388	15330.2	15330.2
645.591	25402.6	1037.66	15626.9	15362.2	15370.4	15286.8	15342.4	15330	15332.4	15276.8	15359	15307.2	15322.4	15320	15253.8	15370	15229.6	15287.2	15287.2
645.819	25222.5	1032.9	15514.8	15395.3	15307.3	15337.7	15261.9	15355.5	15211.9	15245.7	15208.7	15260.3	15252.3	15205.1	15222.3	15258.3	15158.9	15197.1	15197.1
646.046	25037.3	1033.6	15409.3	15207.5	15213.7	15195.5	15087.5	15181.3	15054.9	14995.9	15074.1	15088.9	15020.5	15094.7	15083.8	15105.3	15097	15098.1	15098.1
646.274	24925.6	1033.44	15384.5	15180.5	15106.1	15137.3	15078.5	15125.1	15008.9	15112.1	15040.7	15004.2	15119.7	14985.1	15097.1	15037.5	14996.1	15025.5	15025.5
646.502	24779.3	1043.26	15292.5	15132.6	15064.2	15001.6	15073.2	15087.6	15026.3	15030.5	15005.8	15037.6	15031.2	15008.8	14962.6	15017.6	14984.8	14928.6	14928.6
646.73	24613.2	1030.42	15162.7	15005.3	14983.7	14946.7	14977.1	14984.7	14915.7	14949.5	14941.5	14927.1	14955.9	14959.3	14977.1	14914.7	14885.1	14848.9	14848.9
646.957	24477.1	1037.76	15038.8	15000	14912.8	14900.2	14820.8	14893.6	14851.2	14944.2	14853.8	14871.4	14793.2	14798.2	14822.6	14911.4	14831	14833.4	14833.4
647.185	24484.9	1039.28	15115.6	14934.6	14982.8	14898	14898.2	14891.2	14791.2	14798.2	14819.4	14828.6	14845.6	14840.8	14816	14815.6	14902	14780.6	14780.6
647.412	24297.8	1040.62	14952.7	14776.1	14810.9	14670.5	14745.3	14686.7	14763.2	14711.1	14746.7	14746.3	14726.9	14749.9	14644.5	14663.7	14715.9	14702.5	14702.5
647.64	24188.7	1037.12	14923.9	14781.3	14779.1	14698.5	14645.7	14751.7	14661.3	14650.3	14651.1	14632.5	14670.1	14636.9	14699.1	14596.1	14626.1	14646.5	14646.5
647.867	23831	1040.68	14697.7	14503.1	14502.7	14498.9	14516.1	14429.9	14404.7	14457.1	14430.7	14399.1	14380.3	14343.3	14386.1	14340.3	14387.3	14310.3	14310.3
648.094	23986.6	1036.54	14726.1	14645.4	14611.8	14518.4	14470.2	14546.6	14553	14495.6	14530	14524.8	14471.4	14467.6	14428.8	14498.6	14431	14455.8	14455.8
648.322	23678.1	1039.76	14609.2	14395.1	14407.1	14358.1	14361.5	14310.7	14347	14314.9	14362.5	14320.9	14269.7	14298.5	14364.7	14386	14233	14329.7	14329.7
648.549	23714.8	1044.51	14594.3	14507.1	14434.7	14431.9	14393.1	14340.1	14386.5	14328.3	14269.5	14382.2	14360.3	14378.9	14376.5	14342.9	14256.5	14317.3	14317.3
648.776	23442.7	1032.26	14455.7	14322.4	14333	14274.6	14232.2	14193.2	14312.2	14254	14173	14280.8	14298.4	14203	14202.4	14209.2	14193	14209.2	14209.2
649.003	23591	1037.46	14543.1	14388.6	14329.4	14291.8	14225.2	14271.8	14382.8	14246.6	14318.4	14378.8	14279.8	14376	14238.4	14249.6	14316.8	14285.6	14285.6
649.23	23427.9	1040.4	14411.8	14259.4	14221	14188.6	14152	14208.2	14249.2	14126.6	14150.8	14164.2	14102.4	14156.8	14144.2	14183.4	14092.6	14151.6	14151.6
649.457	23246.2	1031.54	14296.3	14107.7	14215.3	14136.5	14134.7	14093.9	14152.7	14072.7	14098.9	14064.1	14077.5	14078.5	14006.3	14006.5	14039.5	14094.5	14094.5
649.684	23046.4	1042.72	14249.8	14122.6	14057.4	14052.4	14034	13883.8	13980.2	13985.8	13911.5	13941.8	13961.4	13936.8	13917	13922.4	13945.4	13971.6	13971.6
649.911	22966.7	1041.4	14216.9	14074.8	13997.2	13945.8	14027.4	13899	14000.4	13960	13856.8	13937.4	13872.6	13969	13864.4	13865.5	13816.4	13885.2	13885.2
650.138	22664.5	1035.9	14022	13816.4	13833.2	13750.2	13756.8	13738.6	13676	13726.8	13717.8	13729	13780	13734	13749.6	13773.6	13737.8	13684.9	13684.9
650.365	22765.8	1033	14098.7	13929.3	13987.1	13834.1	13805.3	13812.3	13871.9	13829.5	13850.5	13790.5	13811.1	13803.7	13753.1	13885.1	13745.5	13734.3	13734.3
650.592	22492.7	1039.04	13929.7	13792.5	13734.7	13762.9	13782.9	13708.5	13713.1	13691.9	13607.9	13605.3	13632.9	13580.9	13631.3	13641.7	13630.3	13574.9	13574.9
650.819	22590.7	1034.2	13994	13815.7	13822.7	13725.3	13687.3	13677.3	13679.3	13718.1	13697.3	13692.7	13637.7	13597.5	13625.7	13643.9	13682.3	13638.9	13638.9
651.045	22379.7	1039.48	13799.1	13648.1	13611.1	13596.3	13649.5	13566.9	13508.5	13619.1	13526.7	13572.9	13581.5	13573.7	13575.9	13433.5	13530.9	13511.9	13511.9
651.272	22168.5	1043.4	13704.4	13496.6	13577.8	13417.2	13415.2	13474.2	13455	13528.8	13422.4	13421	13432	13430	13413.4	13494.8	13396.6	13387.4	13387.4
651.498	22167.7	1039.26	13680.4	13494.2	13459.6	13527.8	13478.8	13366.6	13410.6	13436.8	13422	13405.4	13419	13398.8	13322.2	13400.6	13410.2	13397.6	13397.6
651.725	22053.5	1034.16	13675.6	13508.7	13434.7	13437.6	13352.3	13349.7	13259.5	13427.5	13336.7	13356.9	13426.3	13267.3	13267.1	13291.5	13295.3	13331.1	13331.1
651.951	21820.5	1040.16	13495.4	13353.9	13352.5	13306.7	13253.3	13168.7	13212.1	13227.5	13211.3	13241.5	13232.1	13207.1	13167.7	13171.9	13217.7	13159.7	13159.7
652.178	21771.2	1035.08	13425.7	13387.2	13233.2	13255.2	13174	13210.4	13197.4	13207.2	13184.6	13215.2	13185.6	13145.6	13172.8	13139	13142	13184.4	13184.4
652.404	21604.3	1029.8	13316.4	13220.6	13137.4	13098.8	13127.6	13099.6	13113.4	13108.4	13085.4	13050.2	13063.6	13003.6	13077	13026.2	13021	13072.4	13072.4
652.63	21427.1	1037.6	13228.6	13081.4	13027.4	13078	13009.6	13040.4	13018	12993.4	13010.2	12992	12936.8	12991.8	12985	12969.2	12989.8	13004.8	13004.8
652.857	21300.9	1045.32	13156.6	13155.8	13020	13067	12969.2	13014.8	12951.8	12964.2	12973.6	12906.8	12957.4	12923.8	13072	12940.2	12940.6	12931	12931
653.083	21167.6	1040.86	13116.9	12991.7	12952.9	12910.5	12894.7	12905.3	12861.7	12843.9	12848.7	12905.9	12846.7	12856.9	12867.1	12814.3	12864.9	12849.7	12849.7
653.309	21054.8	1037.16	13031.3	12865.1	12992.7	12865.7	12818.1	12804.7	12812.3	12813.9	12828.1	12813.7	12843.3	12788.1	12749.5	12809.9	12810.7	12682.7	12682.7
653.535	20974.2	1044.48	13002	12868	12858.6	12913.8	12820.6	12812.6	12863	12793.2	12807	12830.8	12768.8	12725.6	12728.2	12645.6	12766.6	12708.8	12708.8
653.761	20785.7	1043.04	12924.9	12862.9	12711.5	12699.1	12776.9	12655.1	12768.1	12694.5	12723.7	12661.3	12640.5	12735.1	12743.3	12676.5	12693.5	12634.7	12634.7
653.987	20642	1039.14	12804.4	12685.6	12686.8	12648.6	12645.8	12576.2	12629.4	12643.6	12642	12636.2	12603.4	12576.6	12614.4	12571.4	12592.2	12603.4	12603.4
654.213	20615.2	1037.42	12833.8	12719.9	12661.1	12703.7	12633.1	12620.5	12660.3	12627.9	12642.7	12629.3	12635.5	12598.9	12502.5	12605.5	12647.3	12552.9	12552.9
654.439	20452.2	1042.66	12698.1	12709.9	12567.1	12567.7	12556.1	12501.1	12500.9	12530.3	12493.9	12510.3	12457.3	12478.1	12467.5	12471.1	12445.9	12462.5	12462.5
654.664	20253.1	1038.06	12623.8	12515.4	12418.6	12318.6	12373.8	12399.4	12442	12352.8	12347.6	12385	12271	12354.4	12305.4	12422.8	12408.4	12264	12264
654.89	20205.2	1041.86	12616.2	12388.7	12440.7	12380.7	12382.7	12399.3	12366.5	12462.5	12324.3	12385.9	12341.3	12317.7	12384.5	12317.5	12414.9	12312.7	12312.7
655.116	19999.9	1037.98	12420	12322.8	12301	12273.4	12341.2	12248	12233.8	12236.2	12265.4	12274.6	12242	12180.2	12228.2	12133.2	12245.4	12180.6	12180.6
655.342	19950.9	1031.96	12449.3	12278.4	12232.2	12251	12292.2	12241.2	12252	12226.6	12275.6	12212.8	12265.8	12158.4	12212.6	12165.4	12198	12218.2	12218.2
655.567	19763.2	1031.36	12303.6	12164.6	12150.4	12130.6	12127.2	12088	12052	12071	12057.8	12030.2	12143.6	12045	12121.2	12034.8	12087.4	12027	12027
655.793	19627	1036.1	12195.2	12100.5	12070.1	12067.3	12067.3	12062.3	11977.9	12031.7	12070.1	11944.3	12019.3	12036.3	11974.9	11968.9	11972.3	12076.7	12076.7
656.018	19463.1	1032.22	12076.3	11978.3	11991.7	11955.7	11937.3	11942.9	11950.3	11890.9	11955.1	11972.5	11923.9	11918.1	11866.3	11835.3	11867.3	11899.5	11899.5
656.244	19368.3	1044.62	12039	11928.9	11957.1	11911.9	11847.9	11844.9	11806.7	11954.5	11817.1	11833.5	11817.5	11883.1	11819.1	11790.1	11810.7	11801.3	11801.3
656.469	19193.5	1042.16	11949	11848.9	11796.7	11820.9	11818.3	11762.3	11782.7	11821.5	11716.9	11780.5	11689.9	11767.7	11712.5	11690.1	11766.1	11758.5	11758.5
656.694	19135	1032.54	11891	11813	11801.2	11759.2	11754.4	11808.2	11719.6	11697.4	11636	11696.4	11725	11679.6	11691.2	11642.2	11576.4	11669.8	11669.8
656.92	18995.9	1037.48	11823.9	11753	11684.4	11608.6	11696.8	11684.8	11560.4	11674.8	11720.8	11651.2	11687	11605.8	11637.8	11622.8	11559.8	11671.6	11671.6
657.145	18871.9	1043.18	11747.2	11657.7	11555.7	11609.3	11654.5	11598.1	11591.9	11576.3	11610.5	11558.5	11524.3	11570.7	11571.7	11531.3	11488.3	11544.9	11544.9
657.37	18798.5	1044.36	11728.9	11666.1	11540.9	11547.5	11613.7	11559.9	11554.9	11592.5	11596.3	11577.2	11444.9	11533.5	11565.1	11537.1	11476.3	11510.5	11510.5
657.595	18604.1	1040.1	11602	11546.4	11448.4	11512	11508	11432.4	11481.8	11404.4	11432.8	11466.8	11436.8	11369.8	11428.8	11402.4	11422.8	11425.2	11425.2
657.82	18563.5	1033.37	11581.6	11443.8	11469.8	11502	11377	11422.2	11333.6	11440.2	11392.8	11368.6	11321.8	11447.2	11335.2	11311.2	11373.6	11310.4	11310.4
658.045	18392.6	1036.16	11433.6	11333	11281.8	11315.8	11276.4	11232.6	11233.6	11292	11325.6	11276	11303.4	11275.2	11229.4	11249.6	11253.6	11218	11218
658.27	18340.8	1035.48	11409.2	11291.9	11273.9	11299.3	11265.9	11232.5	11215.1	11221.7	11283.1	11211.1	11186.1	11164.1	11232.3	11239.3	11181.3	11134.9	11134.9
658.495	18089.7	1030.94	11282.9	11217.6	11212.2	11115.2	11095.4	11090	11190	11130.8	11036	11146.4	11177.2	11167.4	11132.6	11197.8	11029.4	11089.8	11089.8
658.72	18043.5	1037.08	11288.1	11253.5	11214.3	11140.5	11094.1	11169.1	11122.5	11089.1	11094.9	11084.5	11064.1	11060.1	11105.7	11075.9	11097.1	11030.3	11030.3
658.945	17824.7	1040.12	11171.7	11042	11044.4	11112	11049.2	10990	11000.2	11009.4	10982.2	10992	10963.4	10992.4	10978.2	10860.8	10907.4	10961.6	10961.6
659.169	17766.2	1046.9	11108.3	10975.6	10967.4	10990.6	10950.4	10952	10945.4	10904.2	10874.6	10862	10929.4	10833.4	10893.2	10925.6	10909.4	10982.6	10982.6
659.394	17671.7	1036.2	11040.7	10921.5	10862.1	10892.3	10838.3	10829.5	10840.9	10868.9	10815.3	10841.1	10849.3	10839.7	10893.3	10868.3	10834.1	10844.5	10844.5
659.619	17597.4	1035.26	10964.5	10908.7	10887.7	10885.7	10922.7	10793.1	10807.7	10822.7	10799.3	10859.7	10787.5	10852	10872.9	10761.3	10815.3	10756.5	10756.5
659.843	17442	1045.48	10890.7	10814.9	10743.7	10724.9	10799.5	10758.1	10699.5	10712.7	10707.9	10728.9	10649.1	10794.5	10693.1	10717.3	10680.5	10749.3	10749.3
660.068	17208.3	1024.94	10781.7	10701.5	10679.3	10682.7	10540.9	10573.3	10587.7	10577.9	10615.7	10599.5	10569.5	10542.9	10588.5	10602.1	10593.7	10527.9	10527.9
660.292	17013.3	1035.36	10716.8	10625.5	10625.3	10558.3	10507.9	10568.9	10602.1	10503.3	10517.5	10523.9	10615.9	10492.7	10558.1	10493.9	10516.9	10523.1	10523.1
660.517	16986.2	1038.14	10659.8	10600.4	10409.8	10524.4	10500.4	10494	10441.3	10563	10508.4	10485.6	10510.2	10468.6	10421.2	10489.8	10417.6	10439.8	10439.8
660.741	16843.8	1036.65	10551.7	10505.3	10427.7	10455.5	10404.3	10384.3	10454.1	10533.7	10372.1	10419.9	10425.3	10373.9	10329.7	10369.3	10398.1	10402.3	10402.3
660.965	16800.1	1036.57	10566	10436.9	10484.9	10488.7	10418.9	10387.1	10418.7	10409.1	10276.9	10338.3	10401.3	10362.5	10390.1	10303.1	10365.1	10394.9	10394.9
661.19	16679.1	1038.42	10447.9	10416	10370	10350.8	10348.2	10286.2	10390.4	10286.4	10372.4	10275.6	10281.2	10302.8	10233.8	10320.2	10311.4	10269.8	10269.8
661.414	16494.2	1040.22	10407.5	10247.7	10264.1	10213.3	10254.3	10233.3	10268.3	10298.9	10251.9	10165.7	10169.9	10183.3	10193.5	10224.7	10271.7	10130.9	10130.9
661.638	16413.1	1045.52	10352.3	10190.1	10198.9	10202.9	10299.9	10187.7	10203.3	10160.9	10178.3	10133.3	10151.1	10196.9	10194.5	10130.5	10173.5	10156.5	10156.5
661.862	16282	1042.66	10242.1	10122.5	10161.5	10103.5	10127.1	10066.1	10113.9	10117.5	10029.1	10125.5	10119.3	10098.3	10059.1	10004.3	10021.5	9977.54	9977.54
662.086	16114.2	1042.2	10128.7	10042.1	10045.5	10020.9	9932.32	9998.92	9988.12	9940.92	9991.72	9948.52	9980.92	9967.12	9972.92	9869.52	9928.32	9946.32	9946.32
662.31	16094.3	1035.48	10157.4	10068.8	10075.4	10016.6	9961.78	10039.4	10007.8	9932.18	10047.6	9969.58	9976.58	9913.38	10005.4	9890.78	9961.58	9999.78	9999.78
662.534	16057	1032.62	10112.9	9984.92	10054.3	9954.02	10002.1	9911.32	9930.52	9898.12	9934.92	9931.12	9896.92	9922.32	9893.12	9893.52	9844.72	9881.12	9881.12
662.758	15886.4	1040.62	9990.37	9894.3	9878.9	9823.1	9820.9	9846.9	9844.9	9831.5	9760.9	9813.1	9774.3	9747.7	9810.9	9840.9	9782.5	9767.7	9767.7
662.982	15829.8	1036.72	9942.29	9809.56	9822.96	9820.96	9857.96	9785.76	9822.36	9872.36	9852.36	9792.96	9790.76	9850.16	9782.36	9770.96	9765.16	9819.36	9819.36
663.206	15745.8	1034.28	9935.19	9840.66	9785.06	9807.46	9799.86	9779.86	9826.86	9834.86	9721.26	9768.46	9802.66	9753.86	9697.86	9735.86	9815.46	9736.06	9736.06
663.429	15599.3	1036.52	9833.46	9697.26	9665.86	9700.66	9683.06	9678.26	9670.66	9697.86	9639.06	9671.06	9663.86	9620.26	9597.66	9656.86	9654.66	9708.26	9708.26
663.653	15454.7	1036.98	9753.97	9682.5	9634.3	9599.3	9520.7	9597.7	9618.1	9575.7	9540.5	9573.7	9629.9	9623.7	9596.1	9605.1	9634.5	9573.1	9573.1
663.877	15364.9	1040.2	9725.8	9644.8	9548	9603.6	9517.2	9637	9523.4	9635	9533	9584	9500.4	9619.4	9547.2	9538.4	9520.6	9500.4	9500.4
664.1	15215.9	1037.62	9605.81	9452.14	9543.54	9432.74	9416.34	9401.54	9458.34	9397.94	9444.74	9493.14	9451.94	9402.54	9425.94	9405.14	9434.74	9444.14	9444.14
664.324	15168.8	1041.6	9525.07	9432.8	9498.6	9394.4	9427	9470.2	9401.6	9372.4	9447	9448.4	9423.8	9358.4	9386.6	9414.6	9310.2	9394.2	9394.2
664.547	14980.7	1036.96	9417.22	9348.42	9354.02	9270.62	9354.82	9290.02	9270.42	9251.42	9323.22	9323.82	9263.02	9313.62	9238.22	9255.22	9299.02	9244.82	9244.82
664.771	14907.8	1047.14	9357.16	9341.36	9320.96	9296.56	9284.16	9302.96	9267.76	9246.56	9219.56	9269.16	9205.36	9283.36	9271.36	9220.76	9214.56	9195.76	9195.76
664.994	14830.7	1046.72	9395.18	9304.58	9287.58	9236.58	9256.58	9279.98	9268.78	9255.78	9218.18	9201.98	9261.98	9253.58	9191.38	9227.78	9193.98	9220.58	9220.58
665.217	14674.6	1041.38	9253.47	9205.8	9164.2	9163.6	9168.8	9189.2	9149.4	9170.6	9146.6	9157.6	9160.2	9101.6	9095.8	9107.8	9197.2	9096.6	9096.6
665.44	14520.7	1035.42	9162.43	9124.9	9103.1	9121.5	9080.1	9075.7	9011.1	9035.5	9070.3	9075.3	9073.9	9044.7	9084.1	9042.5	8984.1	9014.6	9014.6
665.664	14459.6	1042.48	9159.79	9145.26	9084.26	9025.26	9070.86	9016.46	9042.26	9009.06	9021.66	9096.46	9020.26	9047.46	9022.86	9010.86	9005.26	9071.26	9071.26
665.887	14376.3	1037.46	9156.34	9069.14	9105.54	8988.74	8988.54	8984.14	9039.74	8972.34	8938.74	8951.14	9069.14	9029.14	8984.54	8988.14	9001.34	8970.14	8970.14
666.11	14246.5	1031.88	9059.63	9012.36	8984.36	8952.56	8933.96	8878.96	8929.36	8901.16	8876.36	8944.76	8905.96	8905.76	8902.76	8884.76	8855.76	8879.96	8879.96
666.333	14090.5	1031.73	8985.37	8861.24	8838.04	8894.84	8869.64	8840.24	8816.24	8864.64	8835.84	8810.44	8760.24	8883.24	8808.84	8768.44	8807.64	8709.84	8709.84
666.556	14016.7	1033.32	8918.57	8869.24	8873.44	8823.84	8831.44	8820.04	8762.84	8693.64	8739.44	8703.64	8738.84	8759.24	8809.04	8717.04	8705.94	8741.84	8741.84
666.779	13904.9	1036.68	8847.31	8702.38	8739.98	8741.18	8680.38	8693.18	8674.38	8694.18	8682.98	8677.58	8674.58	8659.98	8669.58	8724.78	8688.78	8672.78	8672.78
667.002	13848.8	1035.9	8773.86	8648.86	8722.46	8714.26	8655.26	8664.66	8648.46	8688.06	8597.86	8673.46	8638.26	8652.26	8660.66	8622.46	8614.66	8591.26	8591.26
667.224	13697.7	1038.7	8695.12	8704.92	8605.72	8624.12	8563.12	8530.52	8510.92	8518.32	8594.52	8523.52	8492.72	8539.72	8586.92	8499.32	8522.92	8538.12	8538.12
667.447	13615.8	1032.56	8569.51	8502.78	8497.18	8481.78	8501.18	8504.58	8491.78	8450.38	8468.58	8413.78	8382.78	8442.18	8475.78	8486.78	8405.98	8455.38	8455.38
667.67	13583.5	1043	8567.87	8500.2	8469.2	8500.8	8483.2	8469.6	8454	8406.6	8397.4	8407	8410.2	8459	8433	8390.6	8485.8	8457.8	8457.8
667.893	13384.1	1043.8	8471.27	8347.34	8431.74	8416.74	8322.74	8385.94	8356.14	8390.14	8308.74	8344.94	8314.54	8339.54	8336.14	8305.34	8313.74	8326.34	8326.34
668.115	13366.3	1036.34	8442.19	8433.66	8361.06	8395.26	8354.26	8326.26	8407.26	8338.26	8325.26	8367.46	8330.86	8299.06	8272.66	8392.26	8347.46	8301.86	8301.86
668.338	13228.4	1039.44	8400.22	8345.42	8294.42	8207.22	8277.62	8242.42	8253.02	8253.02	8307.22	8226.22	8272.02	8238.22	8232.42	8256.22	8222.02	8190.42	8190.42
668.56	13142.1	1030.64	8313.33	8216.26	8219.66	8262.06	8251.06	8219.06	8211.66	8223.46	8289.46	8205.66	8223.26	8229.66	8193.66	8214.66	8219.06	8139.06	8139.06
668.783	13021.3	1042.3	8258.68	8159.48	8138.28	8163.88	8142.28	8181.88	8217.28	8083.28	8193.68	8106.88	8180.88	8127.68	8130.28	8180.48	8150.68	8160.08	8160.08
669.005	12984.3	1033.38	8271.74	8120.54	8103.54	8165.54	8122.54	8120.94	8137.94	8128.14	8109.94	8125.14	8096.14	8125.14	8080.94	8100.94	8121.34	8045.94	8045.94
669.227	12783.2	1042.96	8156.87	8092.94	8028.34	8063.54	8048.34	7998.34	8002.74	7982.54	7971.14	8002.14	7980.14	7968.74	7991.94	7979.34	8002.54	7999.54	7999.54
669.45	12777.4	1043.08	8117.34	8143.34	8008.34	8046.34	8011.94	8019.14	8036.74	8036.54	8004.94	8064.94	8065.74	8024.54	7991.54	8055.74	8001.74	8007.14	8007.14
669.672	12644.3	1038.3	8026.28	8040.68	7943.28	7950.08	7972.88	7897.48	7925.48	7933.08	7955.28	7911.08	7947.28	7899.48	7915.68	7926.08	7962.68	7934.88	7934.88
669.894	12508.3	1038.62	7977.21	7938.88	7853.88	7841.48	7861.88	7858.08	7875.28	7838.08	7898.28	7839.68	7783.68	7828.88	7864.88	7831.08	7834.08	7846.28	7846.28
670.116	12463.5	1037.6	7948.63	7901.9	7860.1	7789.3	7860.9	7833.9	7852.9	7806.9	7849.5	7877.9	7769.1	7788.5	7858.7	7864.5	7794.1	7800.5	7800.5
670.338	12397.7	1031.86	7915.28	7798.28	7838.88	7772.08	7782.08	7761.08	7829.68	7815.88	7730.28	7804.28	7755.08	7746.28	7764.28	7729.28	7740.88	7769.08	7769.08
670.56	12248.9	1038.58	7804	7708.6	7715.2	7782.4	7654.6	7687.8	7682.2	7702.6	7641.6	7696.4	7721.8	7672.6	7667.4	7666.4	7639.2	7653.8	7653.8
670.782	12170.1	1044.18	7745.43	7697.36	7674.56	7605.76	7625.56	7655.76	7642.56	7704.36	7617.76	7600.36	7624.16	7607.96	7570.76	7719.76	7625.56	7599.16	7599.16
671.004	12097.6	1036	7693.98	7640.38	7672.38	7553.18	7586.38	7618.38	7600.38	7616.18	7536.78	7569.78	7570.78	7515.18	7619.18	7565.58	7575.38	7486.38	7486.38
671.226	12059.1	1039.08	7642.11	7559.18	7611.38	7589.98	7543.78	7544.98	7536.18	7584.78	7496.78	7628.38	7579.98	7605.38	7514.58	7504.98	7499.78	7556.78	7556.78
671.448	11939	1038.92	7569.19	7450.52	7532.12	7488.32	7484.12	7473.52	7476.52	7477.12	7348.12	7430.12	7429.32	7472.72	7462.32	7418.12	7409.52	7432.72	7432.72
671.67	11784.2	1038.64	7511.19	7447.26	7459.06	7447.86	7373.46	7323.86	7374.26	7371.66	7360.46	7372.66	7364.46	7384.86	7374.46	7355.46	7393.86	7383.06	7383.06
671.891	11696.1	1035.42	7503.9	7365.1	7360.5	7338.1	7380.3	7357.7	7420.1	7356.1	7333.9	7400.3	7348.3	7370.7	7328.1	7341.7	7410.1	7376.3	7376.3
672.113	11618.6	1039.34	7367.03	7396.96	7344.76	7314.76	7320.56	7346.76	7286.16	7349.76	7314.76	7305.36	7274.76	7290.16	7336.96	7282.36	7315.16	7280.56	7280.56
672.334	11520.2	1032	7407.69	7272.22	7298.82	7279.22	7272.42	7307.22	7251.22	7279.02	7267.42	7224.82	7236.42	7253.62	7248.22	7267.02	7282.22	7242.82	7242.82
672.556	11461.5	1040.14	7330.9	7209.1	7244.1	7219.9	7196.9	7244.3	7217.9	7282.5	7228.9	7213.9	7181.5	7184.5	7251.3	7241.7	7244.5	7146.1	7146.1
672.778	11357.5	1032.6	7246.84	7178.04	7188.64	7178.64	7179.84	7167.84	7092.24	7164.24	7194.84	7135.24	7157.84	7131.24	7136.24	7163.24	7175.24	7206.84	7206.84
672.999	11238.6	1038.48	7202.49	7111.56	7087.36	7088.76	7115.56	7080.56	7076.16	7081.76	7098.16	7124.16	7048.36	7041.96	7104.56	7064.36	7088.56	7100.16	7100.16
673.22	11199.3	1038.22	7130.66	7058.26	7073.66	7080.66	7062.86	7044.86	7028.66	7006.26	7098.06	7032.06	7048.06	7053.66	7055.26	7036.46	7002.46	7026.66	7026.66
673.442	11054.5	1046.22	7045.97	7017.04	6980.04	6948.64	6999.64	6921.64	6941.64	6970.84	6946.64	6910.44	6922.44	6939.64	6965.24	6945.44	6949.04	6977.04	6977.04
673.663	11057.8	1038.42	7030.91	7005.58	7000.18	6948.18	6988.18	6895.38	6893.98	6946.18	6901.18	6904.98	6955.38	6976.38	6914.58	6925.78	6966.78	6986.38	6986.38
673.884	10976.3	1030.1	7007.89	6948.16	6941.36	6887.36	6914.56	6899.96	6879.76	6908.16	6838.76	6884.96	6886.36	6850.56	6893.36	6879.16	6889.16	6883.16	6883.16
674.105	10880.2	1035.04	6907.27	6897.8	6913.8	6882.6	6877.6	6873.4	6823.4	6849.6	6861.8	6860.8	6858.6	6825	6832.2	6841.2	6824.4	6835.2	6835.2
674.326	10762.7	1030.86	6870.95	6856.38	6855.08	6833.88	6773.48	6800.48	6809.28	6810.48	6816.28	6835.68	6740.08	6790.08	6771.08	6828.28	6824.88	6770.48	6770.48
674.547	10733.2	1034.42	6825.27	6803.54	6813.34	6800.34	6775.74	6803.94	6821.14	6783.14	6857.34	6780.94	6733.94	6766.54	6745.74	6753.74	6706.74	6742.34	6742.34
674.768	10567.4	1033.52	6757.37	6744.84	6741.44	6719.64	6747.44	6705.44	6678.24	6738.64	6716.44	6729.04	6732.84	6683.24	6672.84	6754.64	6704.64	6666.24	6666.24
674.989	10501.9	1043.44	6717.62	6648.75	6615.95	6630.35	6711.35	6684.35	6629.15	6633.75	6669.75	6637.55	6610.75	6697.35	6610.35	6647.55	6599.95	6674.75	6674.75
675.21	10445.8	1040.4	6683.68	6667.48	6632.68	6609.88	6611.88	6576.28	6623.68	6591.28	6616.88	6592.28	6591.28	6602.68	6573.08	6620.88	6593.88	6578.48	6578.48
675.431	10339.2	1042.24	6616.26	6596.26	6556.46	6571.86	6522.86	6514.26	6535.06	6509.06	6496.46	6510.46	6536.66	6543.46	6505.46	6488.86	6549.06	6466.06	6466.06
675.652	10351.9	1049.56	6596.57	6535.7	6559.3	6562.7	6542.5	6478.3	6573.5	6567.1	6526.5	6521.5	6524.3	6538.9	6499.5	6466.3	6547.5	6463.3	6463.3
675.873	10132.9	1038.46	6495.51	6436.84	6364.64	6368.04	6428.84	6380.24	6428.84	6436.64	6362.84	6416.24	6397.64	6415.84	6416.64	6385.84	6422.84	6368.24	6368.24
676.093	10126.1	1043.27	6475.86	6449.86	6420.46	6413.26	6398.66	6368.06	6421.86	6386.46	6462.26	6347.46	6402.26	6413.26	6363.46	6360.06	6409.46	6369.46	6369.46
676.314	10037.8	1030.74	6474.83	6401.56	6454.96	6402.96	6380.36	6357.16	6364.96	6358.56	6360.76	6360.36	6392.56	6375.56	6403.56	6331.76	6346.76	6336.36	6336.36
676.535	9968.14	1039.72	6424.45	6347.92	6360.32	6381.72	6413.32	6357.32	6318.72	6339.32	6353.52	6341.92	6283.12	6305.52	6353.92	6259.72	6281.32	6308.12	6308.12
676.755	9900.67	1037.85	6351.45	6318.18	6284.58	6215.98	6249.78	6274.58	6243.38	6261.18	6276.98	6243.58	6277.98	6226.78	6189.38	6251.78	6184.58	6256.98	6256.98
676.975	9863.75	1039.89	6304.72	6262.52	6260.12	6230.32	6297.12	6192.32	6213.72	6183.72	6214.32	6196.12	6190.92	6138.72	6218.52	6215.32	6208.92	6187.52	6187.52
677.196	9761.71	1034.24	6246.58	6196.38	6220.58	6106.18	6203.18	6135.18	6172.38	6131.58	6120.78	6142.78	6149.78	6186.78	6130.58	6125.98	6131.78	6105.58	6105.58
677.416	9659.15	1039.64	6172.53	6112.06	6137.66	6096.86	6131.06	6072.26	6063.26	6084.86	6067.26	6106.06	6068.46	6054.86	6084.46	6072.86	6061.66	6024.86	6024.86
677.637	9559.51	1044.98	6143.8	6078.4	6114.4	6105.8	6079.2	6049.6	6079.8	6044.4	6030.6	6081.8	6100.4	6023.2	6026.6	6023.8	6047.6	6027.6	6027.6
677.857	9554.23	1037.24	6118.39	6051.32	6023.52	6053.32	6029.12	6120.12	6042.32	6020.92	6058.72	6045.12	6024.92	6035.52	6005.92	5959.92	6053.32	5982.52	5982.52
678.077	9470.77	1040.06	6038.1	6018.3	6075.5	5963.9	6024.1	5995.9	5928.1	5974.7	5957.1	5910.5	5951.7	5965.9	5984.5	5962.7	5980.5	5979.7	5979.7
678.297	9382.74	1029.44	6027.68	5949.88	5953.48	5942.08	5911.88	6008.88	5948.28	6018.88	5895.28	5912.08	5985.88	5930.68	5958.68	5937.88	5887.48	5918.08	5918.08
678.517	9324.7	1024.76	5960.61	5912.48	5869.68	5895.88	5898.48	5950.28	5910.48	5899.88	5891.68	5878.28	5855.68	5867.68	5879.48	5901.08	5932.28	5869.88	5869.88
678.737	9266.43	1034.34	5927.65	5931.38	5857.38	5884.78	5885.38	5860.38	5862.18	5858.18	5811.78	5849.18	5851.18	5805.38	5852.18	5830.58	5845.38	5834.98	5834.98
678.957	9180.73	1035.32	5925.53	5868	5833.2	5833.2	5823.4	5870.4	5808.6	5823.4	5830.8	5863	5821.6	5840.4	5851.2	5816.2	5803.2	5835.4	5835.4
679.177	9093.62	1035.84	5825.47	5873.14	5762.34	5784.54	5789.74	5761.14	5786.54	5713.74	5730.34	5743.34	5739.14	5745.14	5773.54	5775.34	5732.34	5812.14	5812.14
679.397	9010.73	1037.26	5813.82	5732.62	5743.82	5728.22	5712.02	5670.02	5744.22	5666.02	5670.02	5707.42	5699.82	5700.22	5711.82	5685.62	5727.62	5672.42	5672.42
679.617	8925.56	1034.52	5761.49	5643.56	5741.76	5669.96	5723.56	5647.16	5673.76	5637.96	5681.16	5729.96	5614.56	5728.16	5670.16	5651.96	5711.76	5696.36	5696.36
679.837	8894.81	1030.28	5728.39	5712.46	5601.06	5641.66	5625.86	5592.66	5631.26	5637.26	5642.86	5662.46	5608.66	5607.06	5576.06	5563.86	5619.86	5647.66	5647.66
680.056	8742.62	1039.96	5614.51	5560.84	5586.24	5610.44	5585.84	5558.84	5563.44	5550.44	5532.04	5486.44	5521.64	5539.44	5518.84	5547.84	5536.04	5536.64	5536.64
680.276	8689.98	1038.72	5560.31	5550.78	5494.38	5518.58	5492.58	5541.58	5556.78	5528.38	5527.18	5541.38	5531.98	5541.98	5545.18	5464.68	5480.98	5477.58	5477.58
680.496	8654.25	1028.38	5570.18	5509.78	5466.18	5524.18	5514.38	5553.18	5462.18	5448.78	5507.18	5467.78	5429.18	5469.58	5464.58	5467.98	5517.18	5453.98	5453.98
680.715	8559.55	1038.58	5469.46	5476.66	5454.86	5463.86	5405.86	5431.06	5413.06	5403.46	5385.26	5434.06	5427.86	5358.46	5403.66	5399.06	5380.26	5394.26	5394.26
680.935	8523.44	1038.26	5511.9	5443.97	5451.37	5451.77	5454.17	5421.37	5399.77	5433.37	5389.17	5392.37	5418.57	5421.17	5431.17	5399.57	5391.97	5418.57	5418.57
681.154	8405.37	1039.72	5414.07	5417.8	5340.8	5365	5448.2	5393.8	5325.6	5342	5367	5287.8	5336	5334.6	5407.2	5319.2	5324.4	5391.2	5391.2
681.374	8368.96	1040.64	5385.37	5390.3	5324.9	5321.9	5344.1	5309.9	5337.7	5308.3	5237.5	5268.3	5366.1	5305.3	5265.7	5283.7	5334.9	5296.9	5296.9
681.593	8301.9	1038.94	5365.04	5300.44	5251.04	5245.04	5271.44	5250.64	5282.84	5256.64	5247.84	5255.64	5206.44	5283.44	5256.04	5303.44	5253.44	5294.44	5294.44
681.812	8237.25	1040.94	5271.31	5292.24	5233.64	5261.24	5234.44	5248.04	5235.24	5271.44	5220.44	5235.04	5250.24	5245.24	5210.04	5241.04	5215.04	5205.04	5205.04
682.031	8147.83	1037.88	5234.18	5197.38	5184.98	5146.08	5182.78	5173.38	5173.78	5188.18	5181.38	5147.18	5163.78	5160.58	5201.18	5164.98	5172.18	5140.78	5140.78
682.251	8110.2	1029.33	5210.38	5208.71	5157.11	5213.51	5139.11	5152.11	5170.31	5156.91	5134.31	5122.11	5120.51	5128.11	5151.51	5135.91	5143.51	5123.31	5123.31
682.47	8054.68	1029.6	5208.56	5166.36	5158.76	5094.96	5194.16	5132.36	5118.76	5136.96	5076.76	5128.56	5111.36	5148.36	5127.16	5137.96	5154.76	5131.96	5131.96
682.689	8004.69	1037.44	5151.08	5142.28	5106.08	5119.48	5094.28	5102.48	5079.08	5123.88	5074.28	5084.08	5072.88	4978.48	5063.48	5051.08	5111.08	5049.88	5049.88
682.908	7880.98	1031.32	5051.6	5037.6	5059.2	4976.4	5013.8	5020.6	4985.8	5015.8	5037	4975.8	5015	5002.8	4990	4982.6	4988.2	4965.4	4965.4
683.127	7877.15	1036.86	5049.91	5016.64	5031.64	4996.84	5045.84	4952.44	4969.04	4973.44	4978.44	5020.44	5008.04	4969.44	4954.04	5006.44	5014.44	5017.94	5017.94
683.346	7812.75	1031.9	5010.88	5004.68	5032.68	4984.88	4963.08	4983.88	4974.68	4956.08	4958.08	4998.88	4938.88	4906.88	4969.48	4969.88	4992.08	4951.88	4951.88
683.565	7762.4	1036.02	4969.51	4926.58	4930.78	4955.18	4962.38	4938.58	4908.58	4908.58	4912.58	4907.98	4944.78	4889.38	4906.58	4892.38	4886.18	4904.58	4904.58
683.783	7642	1032.74	4937.49	4866.96	4918.56	4854.76	4789.96	4820.96	4867.76	4877.76	4883.16	4916.76	4832.16	4866.56	4799.56	4809.96	4833.16	4825.56	4825.56
684.002	7583.34	1034.76	4882.09	4831.76	4837.96	4866.56	4836.16	4833.96	4859.56	4807.16	4824.96	4859.76	4821.96	4814.16	4826.56	4785.36	4797.56	4845.96	4845.96
684.221	7500.61	1040.76	4843.69	4836.76	4830.76	4863.66	4809.36	4786.76	4803.56	4802.76	4750.76	4807.36	4803.76	4800.16	4772.56	4837.36	4815.16	4846.56	4846.56
684.439	7464.19	1028.8	4799.97	4843.7	4802.3	4802.5	4823.3	4765.5	4717.7	4742.7	4748.1	4789.1	4723.3	4785.5	4761.9	4751.7	4753.9	4763.1	4763.1
684.658	7446.35	1036.16	4821.7	4826.9	4768.9	4761.1	4754.5	4794.1	4797.3	4731.7	4772.3	4763.1	4789.1	4813.7	4772.3	4738.3	4765.3	4739.5	4739.5
684.877	7354.01	1043.04	4775.05	4722.38	4718.58	4704.98	4644.58	4703.18	4716.78	4698.98	4702.38	4665.38	4713.38	4720.18	4758.78	4700.78	4721.58	4667.78	4667.78
685.095	7267.18	1036.46	4694.03	4665.36	4683.56	4704.36	4663.56	4655.16	4690.36	4716.16	4688.76	4670.76	4638.16	4686.96	4631.96	4644.36	4658.16	4699.16	4699.16
685.314	7254.18	1041.54	4710.95	4697.08	4638.88	4677.68	4636.28	4672.28	4646.28	4621.08	4638.28	4651.28	4653.28	4622.88	4666.48	4634.88	4601.68	4642.48	4642.48
685.532	7163.94	1039.72	4623.85	4604.72	4649.52	4613.32	4531.32	4571.32	4587.12	4578.52	4576.92	4589.52	4570.72	4561.92	4611.52	4577.72	4572.52	4592.12	4592.12
685.75	7108.26	1040.2	4615.29	4573.16	4541.56	4528.96	4538.76	4561.56	4597.96	4597.96	4564.76	4575.76	4521.36	4560.76	4559.76	4533.16	4551.36	4584.76	4584.76
685.969	7018.38	1034.72	4559.54	4553.74	4565.34	4550.94	4561.54	4521.94	4585.14	4486.34	4526.34	4473.74	4515.94	4575.14	4534.54	4490.14	4563.14	4513.94	4513.94
686.187	7028.14	1038.06	4565.51	4533.18	4541.78	4532.38	4507.98	4492.18	4479.78	4521.18	4511.98	4473.38	4537.78	4523.38	4507.58	4478.98	4509.78	4443.18	4443.18
686.405	6937.99	1032.54	4538.41	4462.94	4463.14	4477.74	4464.34	4416.74	4453.14	4461.54	4409.14	4454.74	4443.74	4462.94	4445.14	4470.54	4481.74	4399.54	4399.54
686.623	6854.34	1036.38	4499.16	4440.83	4459.63	4470.03	4484.03	4372.43	4431.43	4440.43	4433.23	4425.63	4392.63	4398.83	4429.23	4407.43	4401.43	4408.83	4408.83
686.841	6817.46	1038.1	4451.43	4388.96	4409.76	4367.36	4384.16	4364.96	4405.36	4405.76	4363.56	4320.56	4349.56	4381.36	4380.36	4352.16	4378.56	4383.76	4383.76
687.059	6749.65	1034.76	4399.59	4369.72	4381.32	4290.72	4364.92	4317.12	4363.32	4335.52	4331.52	4332.92	4321.72	4354.92	4334.52	4318.12	4352.72	4376.32	4376.32
687.277	6706.43	1035.88	4362.43	4340.96	4324.76	4332.36	4324.16	4255.76	4325.96	4313.16	4310.96	4298.76	4328.96	4354.76	4316.16	4312.36	4289.56	4317.56	4317.56
687.495	6647.85	1033.1	4350.73	4344.66	4297.66	4286.66	4295.46	4256.86	4217.26	4292.46	4302.26	4245.46	4271.86	4274.06	4306.06	4255.66	4292.86	4283.26	4283.26
687.713	6600.43	1030.94	4309.77	4267.1	4301.9	4252.5	4260.3	4238.1	4274.5	4256.5	4268.5	4225.1	4243.7	4251.3	4255.7	4269.1	4212.7	4288.5	4288.5
687.931	6523.21	1034.72	4259.81	4214.68	4200.08	4217.68	4196.48	4155.28	4246.28	4201.08	4257.08	4221.68	4175.48	4208.28	4224.08	4255.28	4201.08	4223.88	4223.88
688.148	6484.01	1033.18	4262.08	4236.28	4189.28	4189.68	4158.28	4191.08	4230.48	4150.68	4190.08	4229.88	4164.08	4225.68	4184.68	4167.08	4174.28	4118.08	4118.08
688.366	6446.71	1040.92	4225.71	4212.58	4188.38	4128.78	4211.98	4158.58	4159.78	4203.78	4222.38	4125.98	4145.18	4173.58	4137.98	4156.18	4150.58	4158.78	4158.78
688.584	6376.78	1033.58	4180.19	4154.72	4062.72	4078.32	4121.32	4117.92	4136.92	4106.72	4104.32	4127.92	4059.12	4129.12	4105.32	4119.12	4127.92	4097.12	4097.12
688.801	6334.58	1037.62	4132.81	4028.34	4100.14	4084.94	4069.94	4081.34	4025.14	4076.94	4092.14	4076.14	4095.54	4060.34	4098.34	4078.54	4056.74	4084.74	4084.74
689.019	6268.1	1039.58	4066.82	4087.62	4110.42	4103.02	4083.02	4113.62	4103.42	3990.42	4129.62	4060.82	4071.62	4079.02	4052.62	4077.02	4033.22	4024.82	4024.82
689.236	6256.48	1038.8	4080.02	4089.62	4074.02	4038.82	4046.82	4072.62	4027.02	4020.42	4050.62	4052.82	4034.82	4060.82	4057.62	4009.02	4045.42	4076.82	4076.82
689.454	6180.12	1034.12	4055.27	4045.8	3962.6	4022.6	3945	3967.6	4035.8	4023.8	4007.2	4019	3987.4	4021	4048	3980.4	4002.2	3975.6	3975.6
689.671	6147.26	1038.74	4037.5	3973.5	3940.9	3963.7	4007.5	3960.5	3994.3	4002.9	3955.7	3973.7	3971.7	3950.3	3939.3	3978.5	3971.7	3963.5	3963.5
689.888	6130.58	1035.6	3990.81	3963.88	3967.88	3950.28	3943.28	3984.08	4028.88	3980.28	3920.08	3948.28	3922.08	3947.48	3970.28	3924.88	3939.88	3945.68	3945.68
690.105	6023.69	1033.34	3943.31	3898.38	3990.38	3928.58	3936.98	3893.18	3888.38	3850.78	3927.98	3889.18	3885.58	3882.58	3916.58	3884.18	3850.18	3817.58	3817.58
690.323	5967.37	1037.74	3908.39	3901.46	3837.66	3845.46	3895.06	3842.06	3892.06	3862.26	3885.26	3896.46	3862.66	3843.46	3857.66	3866.86	3859.06	3809.46	3809.46
690.54	5941.45	1038.5	3869.65	3863.52	3840.52	3833.72	3799.92	3882.12	3858.92	3785.32	3859.52	3828.12	3813.72	3858.12	3827.92	3848.32	3806.92	3827.72	3827.72
690.757	5887.48	1045.46	3845.43	3836.7	3865.7	3804.9	3797.3	3822.3	3810.9	3813.3	3830.3	3825.9	3805.7	3809.1	3795.1	3773.5	3795.1	3786.5	3786.5
690.974	5859.25	1031.7	3837.26	3792.86	3805.66	3789.66	3796.46	3821.46	3807.66	3790.46	3809.66	3783.66	3781.46	3830.06	3725.06	3780.66	3760.26	3801.46	3801.46
691.191	5788.74	1043.02	3783.25	3751.92	3725.72	3758.72	3741.92	3709.52	3742.12	3744.32	3721.92	3743.72	3719.12	3747.12	3760.52	3708.32	3749.92	3710.72	3710.72
691.408	5730.55	1042.74	3732.81	3732.74	3731.54	3696.14	3686.54	3697.14	3727.54	3709.14	3741.94	3703.94	3668.74	3734.14	3706.94	3705.94	3676.54	3724.54	3724.54
691.625	5667.49	1036.24	3715.03	3691.56	3642.36	3699.96	3692.56	3683.96	3672.56	3691.36	3695.96	3673.36	3678.96	3667.96	3685.36	3695.96	3677.16	3692.56	3692.56
691.842	5633.63	1034.86	3718.29	3704.96	3656.56	3737.96	3714.16	3646.96	3692.76	3679.56	3672.96	3648.96	3675.56	3709.16	3659.76	3670.96	3744.96	3661.56	3661.56
692.058	5575.98	1037.04	3663.39	3635.06	3662.06	3678.66	3666.06	3655.06	3605.66	3659.26	3618.26	3616.86	3665.86	3673.66	3648.46	3640.46	3646.26	3622.46	3622.46
692.275	5546.93	1032.4	3661.91	3670.24	3664.84	3656.84	3677.84	3628.84	3665.04	3610.44	3618.84	3601.64	3612.64	3664.84	3625.84	3617.44	3610.64	3576.44	3576.44
692.492	5482.35	1039.44	3632.23	3631.96	3605.76	3569.16	3509.76	3577.56	3611.56	3557.56	3580.16	3555.36	3582.96	3575.96	3598.36	3542.36	3590.96	3562.76	3562.76
692.708	5417.94	1052.92	3569.25	3580.18	3562.18	3554.18	3520.78	3512.78	3572.58	3523.98	3527.78	3502.98	3563.38	3581.18	3539.98	3545.78	3545.58	3579.18	3579.18
692.925	5379.18	1036.68	3531.29	3508.02	3522.82	3515.02	3504.82	3514.62	3524.02	3496.42	3496.02	3511.22	3539.02	3471.02	3512.42	3458.62	3483.22	3503.42	3503.42
693.141	5346.81	1044.54	3531.03	3505.96	3543.76	3486.36	3508.36	3523.16	3556.96	3536.36	3536.56	3487.16	3502.76	3543.16	3511.56	3473.36	3495.16	3519.76	3519.76
693.358	5318.1	1041.9	3501.84	3470.24	3488.24	3494.24	3452.44	3495.84	3494.44	3424.24	3448.64	3487.44	3469.84	3485.04	3508.24	3472.84	3496.64	3484.64	3484.64
693.574	5275.68	1033.94	3481.74	3458.74	3412.14	3451.34	3456.34	3439.74	3463.94	3452.34	3449.14	3436.54	3478.34	3478.34	3474.14	3441.54	3468.14	3426.94	3426.94
693.791	5243.77	1042.08	3457.07	3416.94	3448.94	3435.14	3400.14	3440.94	3422.54	3417.74	3388.74	3414.14	3423.54	3388.94	3457.54	3407.34	3471.74	3416.74	3416.74
694.007	5160.37	1034.74	3398.57	3355.3	3395.7	3409.7	3390.5	3416.7	3367.7	3378.1	3415.7	3426.3	3387.3	3348.7	3381.9	3389.7	3382.5	3423.3	3423.3
694.223	5124	1035.1	3387.43	3333.76	3332.16	3348.16	3315.76	3351.16	3289.76	3355.76	3363.16	3346.36	3326.56	3325.96	3329.56	3301.76	3362.76	3317.16	3317.16
694.439	5088.45	1038.38	3349.4	3331	3290.2	3298.2	3301	3301.8	3328.2	3351.8	3332.6	3293.6	3280.8	3294.4	3339.2	3309.2	3336.4	3281.6	3281.6
694.655	5060.32	1037.34	3362.55	3329.68	3334.08	3320.28	3302.68	3308.28	3316.28	3343.68	3313.48	3351.08	3314.28	3303.48	3316.88	3304.08	3284.68	3268.48	3268.48
694.872	5003.28	1033.2	3350.86	3278.86	3293.46	3280.66	3331.26	3330.46	3254.26	3314.06	3318.86	3254.46	3319.26	3335.46	3299.46	3278.66	3263.26	3263.26	3263.26
695.088	4962.88	1029.26	3272.01	3239.74	3246.34	3217.94	3252.14	3275.14	3231.94	3262.14	3207.94	3216.94	3214.94	3245.54	3241.54	3213.34	3191.94	3215.94	3215.94
695.304	4952.77	1050.36	3267.42	3217.82	3259.62	3265.02	3245.42	3215.22	3240.82	3234.02	3234.82	3228.82	3240.42	3228.62	3246.22	3266.02	3225.02	3230.42	3230.42
695.519	4878.22	1032.54	3245.13	3239.2	3221.8	3179.8	3218.4	3216	3186.8	3229.8	3214.8	3192.6	3173	3207	3197.5	3212.4	3210.8	3197	3197
695.735	4851.82	1032.1	3192.59	3184.52	3154.52	3203.12	3166.32	3184.32	3164.32	3191.52	3155.72	3162.32	3180.12	3168.72	3160.32	3160.72	3159.72	3147.92	3147.92
695.951	4813.14	1038.18	3185.43	3174.1	3204.9	3161.9	3165.1	3138.3	3148.7	3168.1	3188.3	3147.7	3148.5	3157.3	3103.7	3141.1	3132.1	3138.9	3138.9
696.167	4777.39	1029.3	3168.47	3164.6	3142	3146.8	3115.8	3093.4	3158.6	3055.6	3138.2	3136.8	3139.4	3148.4	3138	3144.8	3110	3112.8	3112.8
696.383	4731.44	1037.98	3141.75	3101.28	3116.68	3114.88	3097.48	3126.68	3135.68	3071.48	3098.08	3083.28	3062.88	3064.48	3041.28	3072.68	3108.48	3027.28	3027.28
696.598	4660.71	1044	3085.89	3036.02	3115.02	3050.22	3043.42	3083.62	3041.62	3019.02	3033.62	3053.82	3038.22	3080.62	3075.82	3068.42	3121.22	3055.22	3055.22
696.814	4636.11	1030.48	3067.17	3052.1	3048.5	2992.9	3042.3	3040.1	3030.5	3030.5	3056.3	3044.7	3033.1	3001.7	3005.7	3066.3	3027.9	3023.5	3023.5
697.029	4601.44	1037.08	3083.7	3026.1	3025.5	3076.1	3034.1	3003.1	3016.1	3017.3	3011.7	3002.3	3023.9	3032.8	3029.1	3011.5	3068.7	3038.5	3038.5
697.245	4588.79	1039.76	3049.17	3013.3	3018.3	3028.9	3025.2	2999.5	2987.7	3015.7	2990.5	2969.5	2985.1	3011.7	3026.1	3017.1	2980.9	2954.9	2954.9
697.46	4510.59	1043.13	2991.04	2950.64	3002.84	3002.64	2963.04	2978.04	2964.64	2945.84	2949.24	2964.44	2945.44	2946.64	2995.04	2923.64	2948.24	2945.04	2945.04
697.676	4501.93	1029.48	2976.91	2989.98	2951.58	2993.18	2948.18	2937.38	2966.38	2953.98	2954.78	2936.18	2947.58	2920.78	2957.98	2960.58	2886.38	2938.78	2938.78
697.891	4470.2	1039.04	2975.65	2920.18	2930.58	2931.78	2911.38	2968.58	2911.58	2954.58	2916.78	2889.78	2942.58	2944.78	2954.38	2917.18	2938.78	2919.78	2919.78
698.106	4443.51	1036.18	2950.51	2928.24	2918.14	2927.24	2901.04	2928.64	2958.44	2882.64	2930.44	2897.64	2923.04	2881.64	2931.84	2864.84	2904.44	2894.04	2894.04
698.321	4368.61	1034.94	2895.17	2900.3	2942.1	2896.7	2869.9	2874.5	2869.5	2868.7	2837.9	2891.5	2899.1	2831.1	2860.9	2885.3	2854.7	2845.1	2845.1
698.537	4351.03	1036.98	2887.1	2887.3	2895.9	2844.3	2865.1	2856.3	2840.7	2918.7	2884.1	2892.3	2864.7	2839.5	2821.9	2887.3	2828.7	2900.3	2900.3
698.752	4305.37	1035.56	2852.39	2785.12	2843.92	2873.92	2826.92	2875.12	2848.12	2812.72	2882.72	2821.32	2854.52	2829.92	2829.32	2824.52	2809.32	2836.52	2836.52
698.967	4264.73	1048.26	2823.3	2842.5	2786.7	2776.1	2782.9	2808.9	2834.5	2805.3	2793.7	2789.1	2786.1	2817.3	2801.5	2837.7	2789.3	2800.5	2800.5
699.182	4229.14	1047.12	2834.67	2828	2833.6	2754.6	2850	2827	2794.8	2799.8	2807.6	2758.6	2786.8	2787.2	2799.8	2806.6	2806.4	2755.8	2755.8
699.397	4196.74	1040.76	2805.73	2773.66	2807.26	2804.06	2760.46	2753.86	2771.06	2815.66	2789.06	2757.26	2808.66	2765.66	2753.86	2778.66	2802.46	2759.06	2759.06
699.612	4135.4	1042.48	2748.29	2746.82	2742.42	2761.02	2761.62	2722.82	2717.62	2714.42	2731.82	2720.22	2727.82	2743.02	2744.22	2767.62	2752.62	2735.82	2735.82
699.826	4124.94	1038.18	2732.35	2708.42	2781.02	2743.02	2717.82	2720.02	2734.42	2737.62	2705.42	2714.02	2708.42	2731.02	2730.82	2695.02	2717.42	2693.42	2693.42
700.041	4081.51	1029.46	2727.81	2705.14	2692.94	2739.14	2681.54	2649.94	2661.14	2703.14	2690.94	2711.34	2702.94	2703.74	2713.14	2694.34	2696.74	2715.94	2715.94
700.256	4053.19	1035.26	2695.28	2686.88	2654.88	2731.28	2691.48	2676.08	2678.68	2724.48	2634.68	2629.68	2684.88	2652.08	2688.28	2652.88	2661.08	2672.68	2672.68
700.471	3990.01	1039.22	2671.49	2622.02	2653.82	2610.82	2677.82	2648.22	2612.22	2643.02	2621.02	2611.42	2623.82	2655.22	2643.02	2647.02	2643.82	2674.82	2674.82
700.685	3974.81	1044.84	2670.83	2637.36	2621.56	2612.36	2608.56	2647.16	2617.36	2616.16	2664.36	2625.56	2639.76	2646.16	2672.36	2674.76	2635.76	2611.16	2611.16
700.9	3927.8	1038.66	2649.86	2603.26	2580.86	2617.06	2601.46	2610.46	2615.86	2621.06	2664.06	2629.26	2632.66	2608.06	2582.26	2592.66	2666.06	2602.66	2602.66
701.114	3907.58	1034.48	2605.6	2589.4	2593.8	2616.6	2581.8	2615.8	2586	2617.4	2608.4	2608.4	2589.8	2597.2	2622.4	2613.4	2587	2578.4	2578.4
701.329	3862.59	1042.11	2567.37	2571.84	2599.64	2597.24	2553.24	2552.84	2567.24	2572.84	2553.04	2578.84	2562.04	2542.84	2544.24	2556.44	2562.64	2553.84	2553.84
701.543	3825.07	1037.48	2548.49	2571.96	2522.76	2528.36	2534.56	2522.56	2542.76	2561.76	2554.56	2560.36	2539.56	2578.76	2527.96	2542.76	2532.56	2518.96	2518.96
701.758	3805.65	1038.08	2528.16	2553.96	2543.96	2555.56	2544.36	2536.96	2525.36	2529.96	2546.96	2491.56	2527.16	2544.96	2515.96	2501.96	2527.96	2518.76	2518.76
701.972	3782.24	1035.84	2529.53	2547.8	2518.6	2492	2510	2531.2	2533.4	2508.6	2521.6	2523.8	2515.4	2540.8	2551.6	2501.2	2527.2	2547.4	2547.4
702.186	3718.55	1040.74	2479.57	2472.04	2443.64	2465.24	2474.84	2491.64	2420.44	2481.24	2438.04	2475.84	2479.24	2460.64	2495.84	2470.84	2488.64	2500.84	2500.84
702.4	3725.22	1034.2	2470.43	2448.36	2512.76	2417.96	2474.96	2440.96	2456.36	2494.96	2449.56	2486.36	2442.36	2439.96	2468.16	2443.96	2442.16	2482.16	2482.16
702.615	3692.55	1038.42	2455.49	2447.82	2469.02	2420.82	2471.02	2431.22	2433.42	2472.02	2472.82	2480.22	2433.62	2429.02	2396.82	2443.62	2439.02	2417.62	2417.62
702.829	3651.76	1036.94	2447.05	2429.92	2428.72	2447.92	2444.52	2395.72	2417.72	2429.32	2404.32	2451.92	2408.52	2468.72	2423.92	2431.12	2452.92	2438.72	2438.72
703.043	3623.73	1030.06	2417.68	2360.48	2394.48	2378.28	2444.68	2399.88	2408.68	2390.28	2342.08	2358.08	2355.68	2387.88	2388.28	2337.48	2380.08	2403.08	2403.08
703.257	3562.66	1031.54	2401.09	2349.22	2367.42	2349.62	2364.82	2376.62	2358.82	2365.82	2359.82	2373.82	2318.42	2409.22	2365.02	2352.02	2369.62	2329.02	2329.02
703.471	3551.23	1037.39	2373.99	2355.52	2310.72	2298.32	2346.52	2390.72	2352.52	2370.52	2350.92	2341.32	2356.32	2334.12	2354.32	2353.92	2362.72	2333.32	2333.32
703.684	3530.23	1036.76	2381.89	2370.62	2323.02	2337.02	2322.62	2344.62	2363.82	2380.42	2343.42	2334.42	2329.62	2338.42	2309.62	2345.82	2351.62	2350.02	2350.02
703.898	3491.92	1033.76	2345.23	2299.76	2330.16	2316.96	2327.76	2348.56	2287.56	2311.96	2292.76	2338.36	2310.76	2300.16	2266.76	2318.76	2300.76	2311.76	2311.76
704.112	3465.58	1034.48	2313.89	2353.22	2332.22	2271.62	2295.02	2319.82	2307.22	2321.82	2278.22	2287.02	2336.42	2281.62	2289.32	2269.42	2263.82	2295.82	2295.82
704.326	3438.08	1039.22	2308.72	2297.32	2302.72	2318.72	2269.52	2285.12	2287.72	2299.12	2290.92	2313.92	2305.12	2259.52	2282.92	2286.32	2295.92	2288.52	2288.52
704.539	3395.97	1038.98	2273.94	2263.14	2277.54	2281.94	2243.54	2265.74	2265.34	2222.74	2264.94	2250.54	2277.14	2243.14	2255.14	2228.94	2264.74	2243.54	2243.54
704.753	3341.5	1041.02	2263.93	2276.8	2230.6	2236.6	2243.8	2215	2289.2	2206	2284.4	2261	2203	2254.8	2248.8	2235.4	2266.4	2246.4	2246.4
704.967	3365.22	1041.4	2240.65	2244.72	2229.52	2186.12	2218.32	2221.32	2222.12	2237.12	2278.32	2258.52	2205.92	2242.92	2276.12	2249.72	2252.12	2203.32	2203.32
705.18	3306.7	1044.34	2224.14	2189.34	2181.14	2174.34	2188.94	2197.74	2183.94	2200.54	2234.74	2247.34	2173.34	2206.94	2179.14	2189.34	2223.34	2179.94	2179.94
705.394	3284.47	1040.14	2198.77	2175.04	2182.64	2185.04	2151.04	2204.04	2184.84	2202.24	2190.84	2173.04	2210.04	2207.04	2195.84	2173.84	2206.04	2155.44	2155.44
705.607	3277.98	1031.22	2206.13	2152.2	2192.4	2175.6	2155.6	2220.6	2148.6	2183.4	2193.8	2158.2	2159	2143.8	2186.8	2123.4	2174.2	2169.2	2169.2
705.82	3236.45	1039.3	2158.14	2120.41	2114.01	2134.41	2137.61	2157.81	2146.81	2139.01	2122.21	2143.41	2098.21	2137.41	2159.01	2125.21	2158.61	2124.61	2124.61
706.034	3193.06	1028.86	2164.98	2166.18	2126.38	2098.58	2156.58	2129.58	2091.78	2140.78	2100.78	2114.58	2134.18	2099.38	2120.18	2131.18	2087.18	2131.58	2131.58
706.247	3163.8	1039.12	2129.06	2153.66	2139.06	2102.66	2128.26	2084.06	2106.46	2088.66	2069.26	2092.26	2091.86	2101.86	2089.06	2086.46	2112.66	2100.06	2100.06
706.46	3163.2	1028.02	2128.29	2085.42	2098.02	2087.22	2121.62	2116.82	2048.02	2076.02	2062.62	2104.62	2089.42	2066.02	2089.42	2090.62	2046.62	2086.22	2086.22
706.673	3117.47	1039.82	2089.97	2074.64	2081.44	2078.04	2081.04	2084.04	2080.24	2077.24	2087.24	2077.24	2104.44	2082.64	2072.44	2075.44	2120.04	2065.44	2065.44
706.886	3088.21	1036.3	2078.01	2051.54	2030.94	2071.14	2072.74	2078.34	2025.34	2092.14	2032.14	2056.94	2063.34	2075.34	2073.94	2025.94	2068.34	2059.14	2059.14
707.099	3067.27	1037.02	2057.01	2071.68	2046.68	2017.68	2063.28	2021.88	2030.68	2027.28	2033.68	2060.48	2046.88	2038.88	2043.48	2048.68	2039.28	2069.88	2069.88
707.312	3037.44	1040.74	2017.4	2039	2027.8	2002.2	2030.6	2004.4	2032.6	2025.4	2005.8	1969.4	2053	1995.2	2039.6	2007	1985.2	2005.8	2005.8
707.525	3007.22	1022.92	2017.95	2068.88	2027.48	2011.08	2022.68	2003.68	2016.08	1994.48	2018.28	2025.08	2023.08	1986.08	1985.08	2014.48	1977.68	2047.48	2047.48
707.738	2990.81	1039.94	1984.27	2001.14	1997.74	1935.94	2027.14	2023.54	1979.34	1966.34	1952.74	2012.94	1970.54	1959.14	1976.54	2008.14	1956.34	1977.74	1977.74
707.951	2964.5	1040.12	1962.3	1986.5	1973.7	1947.9	1998.3	1932.7	1950.9	1949.3	1904.1	1917.9	1952.3	1913.5	1954.5	1901.7	1975.1	1971.5	1971.5
708.163	2929.31	1044.62	1974.55	1947.88	1926.28	1930.48	1965.28	1950.68	1931.68	1956.28	1937.88	1943.88	1930.68	1937.88	1953.08	1935.88	1957.88	1979.88	1979.88
708.376	2898.54	1032.7	1947.03	1947.76	1936.76	1916.36	1918.16	1932.56	1918.96	1944.56	1909.96	1914.96	1931.56	1935.56	1891.36	1939.16	1953.96	1920.56	1920.56
708.589	2854.53	1037.24	1941.58	1975.98	1886.98	1919.98	1960.38	1908.78	1923.98	1910.38	1920.58	1912.98	1921.58	1941.98	1866.98	1894.58	1912.78	1906.98	1906.98
708.801	2853.94	1034.88	1925.15	1914.88	1877.28	1876.08	1913.28	1894.68	1886.08	1934.48	1847.68	1904.88	1908.08	1906.48	1909.28	1899.88	1857.88	1853.28	1853.28
709.014	2835.82	1025.28	1898.37	1914.77	1887.77	1857.17	1884.37	1854.17	1857.17	1892.77	1870.77	1876.17	1900.57	1891.77	1920.97	1871.37	1875.77	1884.77	1884.77
709.226	2804.85	1038.82	1887.02	1847.22	1859.42	1865.62	1843.02	1835.82	1852.02	1864.02	1870.82	1848.82	1867.62	1843.42	1867.22	1856.42	1840.02	1871.22	1871.22
709.439	2771.27	1034.48	1883.39	1842.66	1811.86	1857.26	1862.06	1857.46	1862.06	1852.06	1830.86	1848.86	1856.06	1824.86	1853.86	1846.86	1875.26	1859.26	1859.26
709.651	2759.71	1036.69	1861.24	1823.84	1825.84	1818.84	1839.04	1752.04	1828.04	1814.84	1792.44	1815.04	1829.44	1813.24	1828.84	1820.24	1820.84	1807.84	1807.84
709.864	2741.21	1034.26	1830.64	1873.64	1816.04	1856.64	1835.04	1834.04	1828.44	1837.04	1836.44	1820.24	1821.04	1835.04	1829.44	1813.44	1833.84	1847.64	1847.64
710.076	2700.49	1043.64	1808.31	1828.78	1826.18	1799.78	1776.78	1819.98	1793.98	1789.98	1804.38	1778.18	1794.18	1806.38	1775.58	1778.78	1803.38	1789.78	1789.78
710.288	2673.31	1033.26	1772.33	1793.4	1800.6	1758	1740	1781.8	1772	1761.8	1727.8	1766.2	1766.4	1786.8	1742.6	1783	1740	1771	1771
710.5	2645.02	1039.62	1756.49	1765.02	1780.02	1755.02	1782.62	1761.42	1757.42	1754.42	1785.42	1759.82	1775.62	1720.42	1779.42	1748.62	1808.62	1755.82	1755.82
710.712	2607.23	1048.38	1750.75	1733.22	1762.82	1698.22	1746.82	1715.42	1713.62	1730.82	1681.22	1700.82	1708.42	1730.62	1724.42	1762.02	1703.22	1701.22	1701.22
710.924	2587.23	1040.66	1720.97	1775.24	1737.44	1687.44	1727.24	1705.44	1746.24	1717.24	1755.44	1733.84	1707.04	1725.44	1726.64	1740.84	1738.04	1715.44	1715.44
711.136	2563.77	1038.52	1723.23	1719.76	1706.16	1700.96	1724.16	1738.16	1747.76	1698.76	1709.76	1730.76	1738.56	1725.56	1726.16	1739.16	1723.76	1701.76	1701.76
711.348	2534.52	1045.5	1695.27	1718.8	1702.6	1671	1692.6	1708.3	1692.4	1714.2	1690.6	1715.4	1681.2	1706.2	1699	1698.4	1704.4	1689.6	1689.6
711.56	2524.4	1037.7	1695.95	1708.08	1693.08	1691.68	1694.28	1698.48	1675.48	1673.48	1703.48	1697.08	1685.48	1674.48	1698.88	1703.08	1695.68	1699.88	1699.88
711.772	2462.63	1027.22	1706.09	1676.82	1618.42	1683.42	1672.82	1663.02	1662.22	1657.02	1677.42	1693.62	1656.22	1660.42	1631.42	1676.62	1664.62	1661.62	1661.62
711.984	2457.18	1035.68	1667.91	1659.24	1634.44	1626.04	1643.24	1674.64	1679.04	1658.24	1675.64	1672.24	1648.64	1621.24	1639.24	1638.44	1666.44	1677.04	1677.04
712.195	2439.71	1047.18	1658.91	1675.38	1635.58	1634.58	1644.78	1623.78	1653.38	1602.58	1612.98	1634.38	1660.18	1639.38	1626.38	1674.78	1667.78	1608.78	1608.78
712.407	2405.92	1040.58	1634.36	1634.76	1603.96	1657.36	1617.36	1609.76	1624.56	1633.36	1626.16	1606.36	1624.36	1626.76	1611.16	1613.96	1614.96	1605.56	1605.56
712.619	2384.7	1037.18	1605.55	1616.42	1619.02	1616.22	1616.22	1626.62	1619.02	1618.02	1603.22	1610.22	1597.02	1637.82	1590.62	1614.02	1610.82	1616.82	1616.82
712.83	2338.27	1025.58	1601.37	1569.7	1571.5	1551.1	1600.9	1589.5	1592.1	1551.3	1579.1	1594.5	1556.1	1634.9	1591.5	1589.5	1583.7	1607.3	1607.3
713.042	2326.24	1034.5	1557.16	1575.76	1585.76	1582.76	1553.76	1584.36	1577.36	1603.16	1551.36	1571.36	1566.36	1596.36	1536.56	1574.16	1555.76	1558.56	1558.56
713.253	2296.15	1033.88	1589.95	1614.45	1613.65	1565.25	1572.05	1557.85	1559.45	1568.85	1516.05	1516.65	1527.05	1563.05	1542.05	1547.25	1559.05	1578.65	1578.65
713.465	2284.78	1036.46	1550.37	1557.84	1541.84	1523.64	1500.84	1505.84	1528.04	1522.44	1530.44	1517.64	1540.64	1501.84	1501.64	1536.04	1515.24	1583.64	1583.64
713.676	2254.75	1028.06	1565.84	1528.24	1539.44	1559.64	1518.04	1504.04	1513.64	1509.64	1499.24	1528.04	1586.84	1530.04	1516.84	1528.04	1498.24	1544.84	1544.84
713.887	2229.58	1033.34	1514.12	1496.12	1510.12	1530.92	1488.32	1524.72	1540.52	1497.92	1506.92	1532.72	1503.92	1527.92	1503.12	1509.12	1502.32	1506.92	1506.92
714.099	2205.85	1032.46	1497.09	1501.22	1485.42	1465.62	1448.82	1489.62	1475.22	1499.82	1464.82	1506.82	1486.02	1492.62	1505.42	1522.42	1467.82	1502.42	1502.42
714.31	2181.04	1038.1	1487.15	1487.08	1480.28	1479.88	1466.08	1464.68	1483.88	1468.48	1468.48	1485.28	1469.08	1466.28	1483.08	1479.08	1508.08	1498.08	1498.08
714.521	2156.51	1036.86	1458.71	1446.24	1444.04	1448.84	1418.64	1456.04	1437.44	1445.84	1468.24	1475.84	1444.64	1450.04	1446.64	1440.04	1437.64	1448.04	1448.04
714.732	2142.01	1033.46	1469.05	1470.98	1474.38	1468.18	1472.38	1446.48	1421.38	1436.78	1463.18	1467.78	1452.58	1380.58	1469.78	1436.38	1436.18	1448.18	1448.18
714.943	2114.69	1036.42	1438.57	1403.84	1415.64	1458.64	1425.64	1391.24	1418.84	1453.24	1433.04	1414.64	1412.24	1435.44	1414.04	1415.44	1443.84	1404.64	1404.64
715.154	2092.33	1026.94	1444.87	1402.54	1417.34	1400.94	1423.34	1405.54	1439.54	1404.74	1447.94	1437.34	1429.54	1440.34	1429.14	1436.34	1391.94	1395.34	1395.34
715.365	2058.35	1036.58	1415.55	1408.22	1393.42	1377.82	1385.42	1399.62	1407.82	1369.42	1419.62	1409.82	1388.22	1452.82	1443.82	1406.62	1414.42	1388.02	1388.02
715.576	2047.95	1036.36	1409.54	1409.34	1391.74	1384.94	1387.54	1396.34	1368.54	1381.94	1382.94	1366.74	1391.34	1397.84	1384.14	1410.34	1378.14	1373.94	1373.94
715.787	2014.84	1034.56	1378.77	1354.5	1372.9	1370.9	1375.7	1324.9	1366.1	1379.5	1379.9	1387.9	1358.7	1349.1	1344.5	1361.1	1361.5	1346.1	1346.1
715.997	2004.54	1037.29	1362.78	1323.58	1335.58	1344.18	1361.38	1370.38	1334.78	1344.78	1326.98	1347.98	1356.78	1371.58	1346.78	1345.58	1338.98	1339.98	1339.98
716.208	1980.09	1051.28	1318.62	1332.02	1335.82	1369.22	1343.82	1324.62	1341.82	1320.22	1358.42	1362.22	1362.42	1356.42	1336.42	1324.82	1330.22	1300.62	1300.62
716.419	1977.88	1039.48	1342.29	1352.42	1328.82	1338.82	1339.82	1356.82	1344.42	1335.42	1331.02	1350.02	1365.62	1330.82	1320.82	1311.42	1319.42	1280.62	1280.62
716.629	1928.99	1033.18	1310.97	1319.9	1323.1	1299.5	1322.1	1304.1	1309.1	1312.5	1320.5	1313.9	1340.7	1344.9	1310.9	1308.1	1319.1	1285.9	1285.9
716.84	1910.9	1035.88	1293.5	1306.1	1304.1	1316.1	1277.3	1294.5	1278.5	1285.1	1284.1	1295.7	1282.1	1269.1	1289.7	1310.9	1300.3	1287.7	1287.7
717.05	1864.68	1033.08	1281.79	1289.86	1260.26	1280.66	1288.06	1289.66	1261.06	1263.46	1233.86	1284.46	1257.66	1241.46	1278.66	1305.86	1261.46	1265.46	1265.46
717.261	1863.26	1047.58	1249.35	1250.98	1280.08	1254.48	1257.68	1292.48	1271.28	1255.68	1260.68	1238.48	1247.48	1242.08	1234.28	1283.48	1257.08	1302.08	1302.08
717.471	1842.27	1040.92	1252.88	1220.88	1235.48	1236.68	1258.08	1201.28	1253.28	1265.08	1233.28	1278.28	1242.28	1268.68	1247.48	1228.08	1248.08	1238.08	1238.08
717.682	1814.05	1036.48	1238.39	1244.12	1228.52	1235.52	1261.32	1225.92	1235.92	1230.32	1232.32	1254.52	1224.72	1206.72	1193.52	1246.12	1227.12	1251.52	1251.52
717.892	1788.34	1030.66	1200.79	1218.52	1228.72	1238.12	1208.92	1188.12	1229.12	1231.72	1212.52	1232.92	1197.52	1236.12	1225.12	1229.12	1211.32	1185.12	1185.12
718.102	1758.17	1035.14	1209.57	1229.44	1206.84	1248.04	1198.24	1218.84	1239.44	1211.24	1206.64	1180.84	1223.44	1189.84	1194.04	1196.24	1253.64	1217.44	1217.44
718.312	1747.96	1024.96	1194.27	1160.74	1204.14	1154.94	1178.34	1152.14	1179.14	1172.74	1165.54	1198.14	1142.54	1210.34	1205.94	1180.94	1180.14	1191.74	1191.74
718.522	1738.67	1040.68	1159.03	1189.16	1140.76	1151.36	1182.76	1161.76	1162.16	1171.36	1153.56	1160.36	1193.76	1188.76	1189.76	1156.76	1186.76	1172.56	1172.56
718.732	1704.88	1035.78	1154.43	1160.36	1144.16	1181.96	1183.56	1187.36	1184.96	1182.36	1130.96	1147.56	1171.36	1211.96	1154.96	1142.76	1180.16	1193.16	1193.16
718.942	1683.64	1030.67	1162.57	1142.04	1170.84	1144.84	1140.84	1157.44	1144.04	1160.64	1157.04	1110.04	1117.84	1171.84	1160.64	1154.24	1175.84	1151.64	1151.64
719.152	1648.25	1037.94	1150.73	1138.66	1164.86	1162.66	1132.26	1131.46	1127.46	1126.46	1148.46	1128.46	1147.46	1133.46	1144.86	1148.86	1141.86	1107.46	1107.46
719.362	1638.56	1027.12	1134.77	1123.04	1131.04	1125.44	1118.04	1131.44	1141.84	1102.24	1129.04	1104.44	1124.64	1112.44	1128.04	1115.24	1126.04	1141.24	1141.24
719.572	1616.51	1039.33	1115.74	1134.54	1099.14	1122.34	1109.94	1125.14	1125.14	1129.14	1107.14	1063.54	1124.34	1112.54	1099.94	1132.14	1116.34	1118.34	1118.34
719.782	1599.38	1040.76	1105.01	1104.34	1103.54	1066.14	1079.54	1088.54	1110.14	1104.74	1055.34	1073.54	1077.74	1083.74	1100.34	1082.54	1116.54	1119.34	1119.34
719.992	1596.91	1041.34	1082.83	1089.5	1100.9	1070.3	1112.9	1073.1	1111.3	1105.3	1117.9	1084.5	1074.9	1110.3	1076.3	1093.7	1064.9	1093.5	1093.5
720.201	1567.39	1037.52	1061.39	1049.06	1070.46	1067.06	1046.66	1058.06	1088.66	1065.46	1054.46	1061.86	1075.26	1053.66	1067.26	1053.46	1048.06	1037.66	1037.66
