#Wavelength [nm]	White Std.	Dark spec	0[s]	19.307[s]	39.359[s]	59.449[s]	79.534[s]	99.569[s]	119.606[s]	139.731[s]	159.762[s]	179.874[s]	199.916[s]	219.971[s]	240.047[s]	260.146[s]	280.297[s]	300.409[s]	300.426[s]
420.156	2097.42	1031.22	136.073	168.54	148.74	153.94	135.54	146.14	135.94	134.54	151.34	138.34	135.64	138.94	174.54	147.74	146.14	134.94	134.94
420.431	2166.58	1025.76	144.493	159.56	169.76	152.16	141.16	155.36	132.36	142.96	131.56	126.16	161.76	147.56	155.16	138.96	159.76	165.76	165.76
420.706	2268.67	1048.8	138.44	158.24	153.04	145.44	150.24	135.24	125.44	135.84	160.84	148.04	143.24	131.24	141.64	125.84	152.44	122.64	122.64
420.981	2380.65	1027.68	159.22	151.42	159.62	168.82	164.02	163.62	156.22	146.42	166.02	173.42	158.82	154.42	155.62	160.82	157.42	154.82	154.82
421.256	2499.86	1041.15	169.547	187.08	143.88	140.88	140.68	161.08	145.28	167.28	151.48	146.08	145.48	149.48	167.28	135.88	153.88	136.88	136.88
421.531	2620.01	1030	179.76	167.96	180.16	179.76	150.96	174.76	167.96	172.96	158.56	134.76	161.16	169.96	183.76	162.56	188.16	165.76	165.76
421.805	2755.52	1037.5	192.46	166.26	156.86	180.46	197.46	168.46	145.66	175.06	168.06	147.26	167.06	188.46	171.46	169.86	181.06	178.26	178.26
422.08	2816.77	1038.44	173.84	198.44	182.84	191.04	173.64	170.64	145.44	178.64	177.24	190.84	136.84	164.04	178.24	164.24	183.24	166.84	166.84
422.355	3038.76	1044.6	196.14	187.74	204.74	198.34	156.54	202.14	182.14	197.74	204.74	178.94	179.94	207.54	188.34	176.94	186.14	196.94	196.94
422.63	3131.63	1041.44	212.56	180.36	209.76	179.36	205.36	195.96	172.96	152.16	186.36	176.36	180.76	203.36	174.76	182.76	185.36	200.16	200.16
422.904	3226.56	1033.22	201.407	189.74	200.54	154.54	186.54	223.94	208.54	192.74	216.94	217.94	198.34	200.14	173.54	220.74	205.14	198.34	198.34
423.179	3334.87	1038.92	233.9	214.7	199.9	204.1	201.7	224.9	220.5	210.7	223.9	205.9	207.2	218.9	214.9	212.5	210.9	205.1	205.1
423.453	3481.44	1037.02	230.64	221.24	195.64	183.64	224.04	211.44	201.84	196.64	176.24	199.24	165.24	199.24	215.44	200.44	217.84	225.84	225.84
423.728	3684.03	1032.62	223.073	212.54	228.34	214.54	213.54	220.34	211.54	234.14	226.34	184.34	212.54	213.74	222.74	200.34	198.94	228.34	228.34
424.002	3801.02	1041.76	243.047	219.18	228.38	245.18	195.98	205.58	231.98	222.78	243.38	256.18	232.98	234.58	277.38	235.38	238.58	221.18	221.18
424.276	3962.07	1037.27	240.5	236.1	233.1	238.3	238.5	247.3	247.7	259.5	237.5	253.5	246.1	229.7	248.7	241.9	222.7	240.1	240.1
424.551	4161.04	1029.36	254.54	223.34	239.14	239.74	276.14	243.94	230.14	250.14	233.54	253.94	255.94	256.74	230.94	256.74	252.74	252.34	252.34
424.825	4324.26	1030.6	282.56	269.96	269.16	263.36	276.96	286.56	262.96	282.16	280.76	249.96	267.56	268.36	271.16	253.76	281.16	307.56	307.56
425.099	4500.9	1037	268.86	290.86	277.86	283.26	263.06	287.06	271.86	307.26	243.26	275.46	257.06	237.26	271.26	264.86	256.66	262.46	262.46
425.373	4679.09	1029.98	288.353	272.02	296.62	302.62	260.22	292.62	279.82	299.82	251.62	255.02	293.42	257.42	254.22	259.42	284.62	274.22	274.22
425.647	4928.73	1035.14	274.22	297.42	287.02	332.42	290.42	270.62	288.62	304.22	284.22	264.82	299.42	299.62	299.22	277.82	265.62	286.72	286.72
425.921	5037.36	1039.14	290.16	291.76	317.96	290.16	290.56	320.16	302.76	305.36	305.76	296.56	307.16	268.36	321.96	314.76	280.96	319.16	319.16
426.195	5113.26	1040.68	314.13	325.93	323.33	334.53	311.33	309.13	301.93	299.53	304.53	291.33	318.33	309.33	319.53	324.93	313.73	284.13	284.13
426.469	5385.73	1028.86	328.1	353.5	342.1	351.5	318.5	334.3	332.3	308.1	313.3	333.3	317.1	316.9	322.3	309.9	338.7	318.9	318.9
426.743	5649.55	1035.36	352.333	360.6	353.6	328.8	344.8	330.2	325.2	335.2	362.6	341	364.4	310.2	318.6	339.4	336.6	316.8	316.8
427.017	5781.29	1035.34	351.49	376.29	331.09	349.49	336.49	342.69	319.09	349.69	323.49	329.49	322.69	329.49	333.89	322.29	319.69	315.09	315.09
427.291	6014.73	1035.48	353.987	357.72	347.92	348.72	349.12	325.52	324.52	342.32	344.92	345.72	371.12	348.72	355.72	353.32	337.92	353.12	353.12
427.565	6244.66	1032.52	376.487	394.02	365.82	375.22	336.22	363.02	354.02	345.02	361.42	362.62	358.62	368.62	362.82	357.82	364.22	382.62	382.62
427.838	6431.49	1038.68	394.68	367.28	373.88	375.68	367.28	390.48	387.48	386.48	388.08	359.28	367.68	385.08	363.68	409.68	376.88	387.28	387.28
428.112	6663.32	1034.72	404.52	374.32	362.92	399.32	380.72	364.92	381.52	392.52	406.72	386.52	377.52	372.32	380.92	400.12	384.72	376.92	376.92
428.385	6841.81	1034.86	424.22	403.42	382.82	437.22	445.62	419.42	404.62	390.62	418.22	418.62	409.42	400.22	421.22	383.22	413.42	411.62	411.62
428.659	7079.69	1040.88	438.887	430.82	424.42	431.22	409.82	407.42	401.02	401.82	425.02	394.42	417.22	437.02	410.22	420.82	393.62	421.02	421.02
428.932	7310.97	1040.1	438.507	429.84	463.64	456.44	442.04	417.64	390.24	408.84	422.84	416.24	385.84	445.04	445.64	418.64	438.64	438.64	438.64
429.206	7491.87	1039.7	445.433	423.1	457.1	426.3	410.3	438.7	439.7	449.7	428.7	419.3	421.9	451.7	426.1	433.5	443.3	445.5	445.5
429.479	7851.67	1031	474.573	466.64	500.64	457.64	476.24	463.64	460.44	478.24	450.04	463.44	433.64	479.84	460.64	423.54	440.04	456.64	456.64
429.753	7903.38	1033.06	459.993	490.06	449.26	459.26	474.06	450.06	499.26	465.46	456.86	478.46	501.66	485.26	434.46	460.66	460.26	464.46	464.46
430.026	8105.87	1028.04	487.58	469.38	472.58	466.58	482.98	459.18	478.78	475.78	479.18	482.78	484.98	464.98	489.78	438.18	473.18	446.58	446.58
430.299	8422.05	1032.5	502.473	487.14	507.54	491.94	460.34	479.14	467.54	498.94	498.14	485.74	481.34	477.74	490.94	494.94	490.54	496.74	496.74
430.572	8729.51	1034.1	521.107	523.64	516.84	501.04	493.84	480.84	502.04	497.24	491.84	533.24	512.84	480.64	514.04	497.64	512.24	479.84	479.84
430.845	8948.34	1033.14	559.04	535.84	532.04	526.64	508.24	537.24	530.04	537.44	532.44	523.04	544.04	521.84	523.84	519.64	519.84	511.04	511.04
431.118	9027.42	1042.2	546.833	518.5	545.5	539.5	537.9	556.9	504.3	539.9	558.9	502.3	526.7	498.5	525.7	522.3	507.1	516.1	516.1
431.391	9179.7	1032.4	556.827	538.76	571.36	563.56	537.16	510.56	560.16	550.96	568.96	542.76	527.36	506.36	541.56	574.16	532.16	550.36	550.36
431.664	9421.46	1034.54	575.927	553.46	550.86	547.46	555.46	545.06	554.86	558.86	568.26	573.26	545.06	560.66	559.46	563.06	559.66	537.46	537.46
431.937	9687.49	1036.88	592.533	601	588.6	599.6	577.2	559.6	574	578.6	530.4	591.6	569.4	575.8	556.6	544	564	576.6	576.6
432.21	9951.87	1035.36	611.243	630.51	564.11	569.11	602.31	568.51	596.51	585.11	580.91	601.91	605.51	599.91	580.91	596.31	588.31	591.91	591.91
432.483	10196.8	1037.64	622.357	599.49	611.49	597.09	574.89	618.09	607.89	591.89	603.29	601.09	574.09	603.49	587.09	597.89	610.29	591.29	591.29
432.755	10401.5	1038.04	619.673	636.54	624.14	613.14	604.34	632.54	619.54	610.74	588.94	595.74	624.34	566.34	592.14	616.74	611.14	606.94	606.94
433.028	10577.4	1033.04	642.427	648.96	637.96	617.76	612.36	640.96	623.36	640.56	586.56	594.36	605.96	630.36	619.96	630.76	594.36	602.16	602.16
433.301	10740.1	1037.42	643.493	647.76	671.16	676.56	640.86	619.96	626.96	601.56	655.76	624.96	621.16	618.36	613.96	634.76	621.96	626.56	626.56
433.573	10872.2	1047.52	648.387	701.72	693.92	650.52	648.32	628.12	626.32	632.72	633.72	651.72	642.52	635.32	602.72	630.12	617.12	612.92	612.92
433.846	11440.7	1040.58	697.54	702.14	686.94	700.34	699.94	695.94	675.54	662.14	692.34	670.74	665.74	721.34	662.54	684.54	693.34	676.94	676.94
434.118	11313.3	1035.82	698.753	676.42	635.02	713.62	711.22	672.42	706.82	682.22	697.02	678.02	699.42	701.82	698.02	685.22	663.42	671.02	671.02
434.391	11405	1027.7	722.04	700.64	684.24	712.04	687.84	669.04	679.24	682.64	665.24	717.04	667.04	666.64	682.04	655.24	694.84	677.84	677.84
434.663	11730.8	1037.7	732.667	708	732.4	705.6	704.8	700.6	718	699.8	684.6	700.6	704.8	698.4	680	699.2	684.6	710.4	710.4
434.936	12043.1	1038.8	734.373	714.04	720.04	722.64	747.64	721.24	708.24	731.24	706.24	738.84	680.44	707.84	728.44	721.24	721.04	726.04	726.04
435.208	12122.4	1037.2	768.9	727.1	748.4	734.5	733.1	716.7	727.9	731.1	749.1	711.5	724.7	718.9	700.1	734.9	703.1	763.1	763.1
435.48	12474.5	1036.54	789.887	758.82	752.62	749.02	750.22	749.02	760.62	753.82	743.02	753.22	734.22	723.62	775.02	737.02	764.42	744.62	744.62
435.752	12544.1	1038.08	775.827	761.36	762.76	779.16	780.96	774.36	772.16	772.56	751.16	781.16	747.56	755.96	754.76	759.56	753.16	748.76	748.76
436.024	12632.3	1042.2	808.867	795.2	786.6	808.4	796.6	794	760.2	768.4	801	745.2	760	733.2	788.2	784	781.2	734.8	734.8
436.296	12978.7	1042.2	830.153	806.82	822.42	807.22	788.02	779.22	779.22	779.42	806.22	780.62	780.42	779.22	778.42	774.62	758.02	773.42	773.42
436.568	13299.7	1035.34	854.493	821.16	827.56	815.36	829.56	770.16	788.36	814.56	839.76	809.76	842.16	820.96	816.36	789.16	832.36	826.96	826.96
436.84	13344.7	1036.58	840.467	835.8	853.2	829	828.2	825.6	819.8	813	803.8	800.4	809.6	830.6	811	809.8	790	804.8	804.8
437.112	13711.1	1035.55	855.507	866.84	858.04	816.84	846.04	851.44	874.04	815.44	866.04	850.84	846.44	820.44	830.44	835.24	817.24	840.64	840.64
437.384	14138	1046.46	900.933	861.8	850.4	872.2	884.2	873.2	863.4	852.6	887.4	880	876.8	868.4	864.4	873.8	836.6	881	881
437.656	14124.4	1042.44	885.08	855.08	860.48	849.88	864.08	860.48	841.08	854.08	893.48	872.48	878.08	841.48	835.68	870.48	863.88	850.68	850.68
437.928	14231.4	1028.86	896.333	917	893.2	875	867.6	886.4	862.8	895.2	885.2	885.6	881.6	883.2	907.4	885.2	871	851.8	851.8
438.199	14726.1	1035.16	925.293	904.36	914.76	906.56	897.16	891.96	851.16	881.36	889.76	870.96	898.16	927.16	918.56	892.76	880.96	909.96	909.96
438.471	15112.5	1028.7	956.247	901.18	914.58	937.58	888.58	965.58	934.18	910.78	920.18	925.38	953.38	913.98	918.58	928.18	913.38	937.58	937.58
438.743	15031.8	1030.04	938.993	954.46	930.26	926.26	941.86	902.86	945.26	916.06	911.86	920.46	936.46	950.46	896.86	910.26	906.66	938.26	938.26
439.014	15520.4	1042.08	1001.01	972.88	978.08	955.88	983.68	942.48	960.48	968.08	942.88	934.08	980.28	980.48	932.68	968.28	917.88	964.68	964.68
439.286	15873.8	1038.66	989.627	1029.16	1002.56	1009.56	965.96	981.56	975.56	954.96	995.96	1019.16	948.76	959.76	990.56	960.56	965.16	988.76	988.76
439.557	15808.6	1037.36	1015.89	1017.16	978.96	983.76	995.56	988.16	988.16	1002.96	979.36	961.36	993.36	973.76	960.16	974.16	997.66	975.96	975.96
439.828	16376.8	1034.04	1061.34	1012.64	1047.84	1012.44	1031.94	1013.64	1029.44	1053.24	1000.64	1019.64	998.84	1004.44	1004.24	1021.24	1023.64	1027.64	1027.64
440.1	16777.5	1026.66	1075.33	1046.4	1067.6	1028.2	1034.4	1046.4	1064.2	1030.8	1058.2	1012.2	1037.6	1006.2	991	1009.8	1037.6	1006	1006
440.371	16694.5	1034.24	1065.84	1060.44	1083.24	1051.04	1017.84	1052.24	1050.84	1055.04	1033.84	1039.04	1007.44	1000.64	1019.44	1011.24	999.24	1016.04	1016.04
440.642	17201.6	1036.28	1123.84	1084.44	1104.64	1089.24	1097.84	1071.04	1052.44	1086.64	1047.84	1062.44	1062.44	1074.44	1049.04	1050.04	1060.84	1064.04	1064.04
440.913	17586.5	1039.26	1133.04	1168.64	1141.64	1090.84	1121.64	1088.64	1114.84	1108.84	1095.84	1077.84	1069.24	1086.24	1095.24	1093.44	1113.24	1065.84	1065.84
441.184	17794	1031.4	1142.93	1166.46	1142.26	1116.86	1106.66	1088.06	1122.46	1098.46	1109.66	1088.26	1122.06	1075.26	1095.06	1085.66	1055.66	1070.06	1070.06
441.456	18180.6	1040.82	1167.68	1205.48	1156.28	1159.08	1155.48	1151.68	1131.48	1132.68	1144.48	1138.88	1171.88	1113.48	1113.48	1139.68	1149.08	1131.68	1131.68
441.727	18413.2	1032.4	1194.89	1187.82	1211.42	1174.62	1149.22	1150.22	1124.22	1142.82	1139.82	1156.42	1147.42	1137.82	1120.82	1143.42	1134.02	1139.82	1139.82
441.998	18848.1	1030.36	1201.64	1207.57	1189.37	1169.37	1161.77	1186.57	1188.57	1196.77	1175.57	1203.17	1189.57	1147.57	1190.97	1138.97	1152.37	1164.17	1164.17
442.268	19392.6	1030.44	1235.97	1227.84	1251.24	1219.84	1211.44	1237.24	1208.04	1185.04	1233.44	1215.44	1201.24	1192.64	1226.24	1202.64	1202.64	1206.44	1206.44
442.539	19370.6	1040	1255.13	1241.4	1247.6	1211.4	1223.6	1213	1225	1192.6	1221	1208.8	1204.2	1199.2	1208.8	1204.8	1210.2	1213.2	1213.2
442.81	20290	1040.04	1321.96	1317.16	1278.76	1317.56	1274.36	1278.76	1264.76	1260.36	1250.56	1270.76	1265.76	1267.56	1279.16	1274.76	1256.56	1270.16	1270.16
443.081	20151.4	1029.38	1312.6	1289	1273.4	1280.4	1270.4	1249.8	1280.8	1259	1284.8	1251.4	1247.2	1264.2	1236	1255.6	1253.2	1270	1270
443.352	20682	1039.7	1355.5	1311.7	1348.1	1334.5	1329.1	1313.3	1320.9	1322.1	1300.5	1280.9	1282.3	1297.5	1273.7	1291.3	1279.9	1297.1	1297.1
443.622	20915.1	1039.32	1381.77	1359.24	1321.84	1374.04	1319.24	1325.24	1311.44	1304.84	1331.44	1289.24	1313.04	1296.64	1311.04	1322.84	1323.44	1334.04	1334.04
443.893	21308.2	1034.2	1384.94	1374.14	1347.94	1386.54	1389.94	1354.34	1343.54	1365.14	1348.74	1359.14	1372.14	1341.94	1360.14	1336.94	1304.74	1339.54	1339.54
444.163	21839.2	1037.95	1449.58	1389.98	1436.18	1435.78	1416.38	1395.38	1381.18	1416.18	1407.18	1388.58	1370.78	1348.38	1386.78	1324.18	1364.18	1350.78	1350.78
444.434	22149.1	1039.86	1454.67	1415.54	1395.74	1431.34	1392.74	1429.54	1430.34	1411.54	1431.94	1406.14	1414.34	1362.34	1381.94	1407.74	1424.74	1417.74	1417.74
444.704	22429.9	1038.52	1459.32	1464.22	1435.82	1425.02	1400.22	1433.62	1388.22	1450.62	1396.82	1408.02	1435.22	1382.02	1393.02	1426.42	1393.82	1417.82	1417.82
444.975	22919.3	1037.7	1509.84	1484.84	1477.24	1463.04	1474.64	1436.44	1440.24	1466.84	1467.44	1446.64	1432.84	1422.64	1412.44	1440.04	1453.04	1458.44	1458.44
445.245	22974.9	1039.74	1503.35	1499.92	1476.72	1473.12	1496.92	1461.32	1451.32	1484.92	1441.72	1477.32	1450.32	1447.72	1416.92	1449.32	1446.32	1440.92	1440.92
445.515	24052.1	1041.58	1578.66	1542.86	1559.06	1536.26	1532.86	1583.46	1545.06	1542.66	1547.46	1533.06	1524.26	1476.66	1503.86	1514.26	1472.06	1517.46	1517.46
445.786	23975.5	1035.36	1591.81	1594.74	1576.14	1556.74	1509.54	1541.14	1555.74	1581.34	1524.14	1523.14	1537.14	1535.34	1539.74	1502.34	1547.34	1476.34	1476.34
446.056	24639.7	1031.32	1637.63	1652.5	1610.1	1598.5	1574.1	1608.1	1614.5	1582.9	1581.3	1562.9	1572.9	1542.1	1614.5	1565.7	1580.5	1555.7	1555.7
446.326	24847.5	1040.14	1658.36	1604.96	1637.96	1583.16	1580.36	1640.76	1564.96	1578.36	1588.76	1558.96	1582.36	1612.56	1551.76	1566.56	1591.16	1584.36	1584.36
446.596	25224.9	1038.62	1675.17	1636.84	1660.84	1633.84	1614.64	1639.04	1607.64	1637.24	1610.44	1621.74	1633.24	1608.44	1596.44	1593.64	1595.24	1617.64	1617.64
446.866	25501.2	1031.84	1704.49	1675.62	1675.22	1680.42	1668.42	1626.22	1636.62	1620.62	1623.02	1617.42	1623.82	1646.62	1609.22	1591.82	1629.42	1641.42	1641.42
447.136	25743.3	1028.52	1712.23	1694.9	1675.7	1683.7	1706.1	1683.9	1616.5	1665.9	1659.7	1654.1	1637.5	1637.5	1627.3	1635.3	1651.3	1641.9	1641.9
447.406	25906	1043.7	1728.21	1653.88	1677.88	1694.08	1677.68	1705.08	1678.88	1715.08	1701.48	1643.48	1639.08	1646.08	1693.08	1667.08	1663.88	1629.28	1629.28
447.676	26311.4	1031.8	1767.03	1738.76	1723.56	1714.16	1730.96	1737.56	1654.36	1706.96	1706.16	1705.76	1694.76	1702.16	1700.56	1710.56	1695.96	1635.36	1635.36
447.946	26827.6	1037.4	1822.25	1806.38	1772.58	1758.58	1728.38	1773.38	1721.38	1739.38	1772.78	1747.38	1744.98	1717.18	1740.98	1711.78	1743.18	1752.18	1752.18
448.215	26646.9	1040.16	1818.74	1811.54	1782.34	1802.94	1766.34	1749.94	1742.14	1730.54	1744.34	1727.54	1748.94	1730.14	1733.54	1712.74	1728.34	1738.54	1738.54
448.485	26791.3	1034.52	1823.69	1781.76	1799.36	1791.36	1774.76	1754.96	1774.16	1778.16	1767.96	1775.56	1729.16	1717.36	1724.76	1725.96	1763.56	1735.16	1735.16
448.755	27135.4	1038	1868.53	1841	1747.8	1806.4	1806.6	1814.8	1790.6	1767	1766.8	1791	1754.2	1759.8	1750.2	1777.8	1762.2	1724	1724
449.024	27508	1037.72	1861.35	1911.22	1850.42	1866.42	1845.62	1818.82	1826.22	1811.92	1818.02	1797.22	1788.02	1773.62	1825.62	1781.22	1797.02	1755.62	1755.62
449.294	27269.9	1039.04	1869.97	1874.5	1813.3	1828.7	1827.3	1830.5	1828.5	1823.3	1816.1	1814.5	1800.5	1800.5	1815.7	1757.3	1773.9	1790.7	1790.7
449.563	27330.9	1027.08	1883.63	1866.36	1843.76	1820.76	1844.56	1880.76	1837.56	1820.56	1820.56	1827.96	1800.96	1808.36	1803.76	1806.96	1796.76	1832.76	1832.76
449.833	27548.3	1034.42	1919.92	1899.32	1848.32	1884.92	1866.12	1862.32	1889.72	1862.72	1912.92	1802.92	1884.12	1866.92	1808.12	1814.12	1791.52	1815.72	1815.72
450.102	27971.1	1036.8	1937.71	1951.58	1894.78	1928.18	1889.98	1880.98	1879.88	1877.78	1859.98	1882.98	1881.18	1879.58	1859.98	1841.78	1862.38	1830.38	1830.38
450.372	27963.5	1047.94	1974.81	1916.94	1955.14	1939.54	1909.94	1912.34	1902.34	1867.14	1901.74	1888.74	1880.14	1875.74	1886.34	1868.14	1863.14	1865.94	1865.94
450.641	27496.9	1039.12	1943.74	1878.34	1938.54	1907.54	1887.34	1873.14	1865.34	1866.94	1848.54	1849.34	1860.54	1851.54	1862.14	1849.14	1843.54	1816.74	1816.74
450.91	27003.1	1037.52	1914.35	1907.42	1885.02	1881.82	1828.22	1846.82	1866.22	1841.02	1894.02	1833.62	1837.42	1805.22	1877.62	1853.62	1783.82	1824.62	1824.62
451.179	26860.6	1042.68	1917.07	1909.34	1932.34	1878.14	1893.54	1863.14	1870.74	1823.14	1869.34	1831.34	1847.94	1815.14	1861.14	1839.74	1837.54	1811.34	1811.34
451.448	27428.9	1030.95	1978.89	1970.16	1913.56	1933.36	1900.16	1910.16	1923.96	1886.96	1927.56	1938.96	1909.36	1846.56	1893.96	1884.16	1900.96	1892.56	1892.56
451.717	26384.5	1027.3	1905.56	1911.36	1860.96	1866.36	1872.96	1826.76	1876.16	1812.56	1839.96	1859.46	1830.76	1830.36	1866.56	1822.76	1842.36	1838.36	1838.36
451.986	26978.5	1041.72	1978.03	1966.96	1921.76	1939.56	1910.36	1897.76	1919.96	1928.96	1897.16	1853.56	1881.56	1879.96	1887.96	1881.56	1895.36	1854.56	1854.56
452.255	26369.4	1022.92	1923.67	1888.4	1891.6	1892.8	1862	1870.4	1856.6	1845.4	1879	1825.2	1822.8	1835.6	1806.6	1851	1829.6	1841.8	1841.8
452.524	25906.6	1034.02	1908.09	1876.42	1857.62	1892.22	1827.22	1841.62	1860.02	1843.22	1850.02	1855.42	1816.02	1797.42	1857.82	1834.42	1828.02	1790.42	1790.42
452.793	26166	1040.9	1928.39	1926.06	1891.66	1905.26	1857.66	1868.46	1926.66	1875.46	1871.26	1865.46	1869.86	1875.66	1844.66	1808.26	1837.46	1874.46	1874.46
453.062	25685.7	1038.38	1923.36	1885.96	1912.76	1856.36	1861.16	1847.76	1854.56	1823.96	1805.56	1839.76	1846.56	1838.56	1845.36	1841.16	1808.76	1828.16	1828.16
453.331	25412.9	1030.28	1915.25	1891.72	1882.12	1901.32	1851.92	1787.72	1874.32	1805.12	1841.32	1827.92	1808.92	1840.72	1844.92	1760.72	1819.12	1833.52	1833.52
453.6	24989.8	1042.54	1901.29	1836.56	1872.16	1840.56	1878.96	1823.96	1822.76	1769.96	1824.56	1793.76	1810.36	1822.16	1788.96	1818.76	1762.76	1791.56	1791.56
453.868	24542.7	1035.98	1876.22	1872.62	1851.22	1853.82	1783.82	1788.82	1823.82	1833.82	1808.42	1794.22	1766.22	1766.02	1762.62	1809.22	1767.62	1787.22	1787.22
454.137	24320.4	1035.54	1861.3	1835.7	1805.7	1823.7	1783.7	1829.1	1778.9	1821.7	1805.3	1778.7	1782.9	1769.9	1733.9	1772.5	1774.3	1800.3	1800.3
454.405	23810.9	1037.3	1844.26	1778.46	1787.46	1773.06	1807.06	1741.66	1701.86	1766.86	1778.26	1758.66	1762.06	1743.06	1720.46	1745.06	1709.66	1736.06	1736.06
454.674	23436.6	1043.02	1810.13	1794.16	1788.86	1752.66	1731.66	1734.86	1757.66	1740.66	1728.86	1702.46	1739.06	1730.26	1737.46	1732.46	1709.46	1711.26	1711.26
454.942	23098.7	1035.38	1797.31	1766.58	1733.98	1762.98	1781.98	1726.38	1728.38	1757.18	1710.58	1718.18	1661.78	1710.18	1730.58	1720.58	1676.78	1704.18	1704.18
455.211	22795.9	1034.56	1794.17	1772.3	1781.5	1744.9	1718.3	1744.3	1705.1	1737.7	1702.5	1690.3	1700.1	1741.1	1715.9	1698.7	1693.3	1698.5	1698.5
455.479	21681.6	1046.44	1712.23	1675.3	1700.5	1664.7	1650.9	1654.3	1670.1	1659.5	1613.9	1612.1	1606.1	1623.9	1648.1	1632.7	1624.5	1608.3	1608.3
455.747	21813.5	1034.82	1715.99	1698.72	1735.32	1689.92	1682.72	1677.92	1642.52	1680.72	1666.72	1637.92	1647.92	1664.12	1612.32	1607.92	1631.32	1658.12	1658.12
456.016	21753.6	1032.22	1723.71	1724.64	1695.44	1699.64	1671.64	1668.44	1636.84	1688.64	1662.64	1668.24	1684.44	1677.04	1640.44	1656.84	1627.44	1636.84	1636.84
456.284	20947.2	1033.52	1691.05	1685.72	1662.12	1656.12	1616.12	1627.12	1639.52	1643.12	1650.32	1623.32	1622.52	1589.92	1600.92	1612.32	1566.72	1603.32	1603.32
456.552	20825.3	1037.52	1671.29	1666.76	1668.56	1637.16	1656.76	1633.96	1635.16	1619.96	1623.36	1612.56	1659.96	1601.16	1576.16	1628.36	1579.96	1590.96	1590.96
456.82	20055.3	1033.6	1611.14	1580.34	1605.14	1559.74	1548.34	1561.34	1563.34	1568.74	1532.54	1579.14	1543.54	1561.54	1562.34	1552.14	1533.94	1544.14	1544.14
457.088	19285	1037.24	1555.97	1530.9	1530.9	1542.5	1563.5	1518.1	1493.7	1538.5	1500.3	1527.1	1507.7	1472.9	1511.1	1466.7	1484.1	1461.7	1461.7
457.356	19201.7	1034.92	1578.23	1560.16	1565.36	1496.96	1534.96	1543.36	1528.36	1510.96	1540.76	1528.36	1519.56	1497.96	1518.16	1505.96	1513.76	1508.56	1508.56
457.624	18906.7	1033.46	1594.71	1533.58	1527.78	1500.98	1495.98	1516.98	1495.18	1487.18	1542.98	1478.58	1490.78	1478.98	1497.78	1471.38	1503.18	1439.98	1439.98
457.892	18587.7	1032.96	1557.11	1538.64	1542.04	1537.64	1504.84	1498.04	1454.04	1464.44	1434.04	1465.24	1469.84	1448.24	1466.84	1481.64	1469.04	1428.84	1428.84
458.16	17760.1	1034.68	1504.69	1469.36	1467.76	1461.56	1366.76	1441.76	1462.16	1416.36	1418.96	1423.76	1426.36	1390.16	1401.96	1411.56	1404.16	1417.56	1417.56
458.428	17757.5	1041.88	1487.74	1426.94	1420.94	1465.74	1451.14	1405.14	1449.14	1410.94	1414.54	1403.54	1374.54	1415.94	1403.34	1390.74	1391.94	1380.34	1380.34
458.695	17149.1	1031.78	1442.13	1393.86	1436.86	1374.86	1392.86	1416.06	1389.66	1394.46	1378.26	1375.66	1354.06	1367.26	1367.66	1347.46	1370.06	1361.46	1361.46
458.963	17315.4	1033.64	1445.02	1440.82	1430.22	1387.82	1384.82	1415.22	1368.02	1436.02	1392.62	1394.22	1372.22	1382.82	1350.42	1356.82	1381.42	1402.82	1402.82
459.231	16807.7	1032.3	1429.36	1364.76	1409.96	1380.56	1369.96	1378.76	1366.36	1395.76	1368.16	1361.76	1328.96	1355.16	1347.76	1356.16	1328.36	1350.16	1350.16
459.498	16268.3	1036.76	1372.19	1364.52	1375.52	1337.32	1346.32	1361.12	1357.32	1352.92	1336.32	1310.12	1326.32	1306.92	1291.32	1318.72	1294.92	1288.72	1288.72
459.766	16266.5	1034.34	1366.88	1333.08	1370.88	1349.68	1340.48	1315.48	1327.68	1342.08	1295.08	1329.48	1324.08	1337.48	1313.68	1326.28	1292.68	1293.88	1293.88
460.033	16057	1033.46	1374.77	1364.9	1371.3	1334.7	1341.9	1299.7	1326.7	1334.1	1321.3	1333.1	1283.7	1327.1	1272.5	1305.7	1308.9	1288.1	1288.1
460.301	15771.6	1047.58	1368.65	1346.12	1344.32	1334.92	1336.12	1301.72	1283.92	1290.72	1254.32	1316.72	1310.32	1296.72	1310.12	1301.92	1287.92	1255.92	1255.92
460.568	15472.1	1040.9	1323.33	1303.86	1322.46	1291.66	1283.66	1299.86	1274.26	1278.66	1243.06	1234.46	1246.66	1274.86	1273.06	1230.46	1215.46	1275.66	1275.66
460.835	15294.5	1039.72	1327.77	1306.5	1305.1	1275.3	1268.3	1316.1	1269.7	1270.9	1248.1	1277.7	1260.1	1257.3	1256.5	1282.1	1272.1	1231.7	1231.7
461.103	15218.3	1046.28	1332.63	1324.9	1281.5	1300.3	1319.1	1261.5	1254.7	1264.7	1230.3	1249.9	1242.5	1260.5	1239.9	1238.7	1234.1	1267.5	1267.5
461.37	14572.1	1044.64	1271.88	1252.28	1231.08	1220.68	1247.28	1224.68	1172.88	1210.48	1245.88	1170.88	1211.08	1182.68	1196.28	1166.08	1181.88	1175.88	1175.88
461.637	14550.4	1030.82	1286.91	1261.38	1233.58	1194.78	1241.58	1240.78	1204.98	1234.78	1196.98	1174.58	1183.18	1198.58	1193.18	1185.58	1199.58	1186.18	1186.18
461.904	14394.5	1044.22	1257.76	1233.96	1228.36	1224.56	1199.96	1182.16	1161.36	1187.76	1190.56	1174.96	1196.16	1180.96	1152.36	1132.96	1204.96	1175.56	1175.56
462.171	14249.6	1042.29	1254.94	1219.54	1249.54	1224.94	1209.14	1196.54	1176.34	1195.74	1167.74	1172.94	1215.14	1166.94	1203.34	1178.54	1197.94	1169.14	1169.14
462.438	13937.9	1034.56	1225.55	1226.42	1232.02	1171.82	1164.02	1172.42	1206.02	1173.42	1175.82	1142.02	1172.02	1179.22	1148.62	1137.82	1142.62	1153.42	1153.42
462.705	13985.5	1033.74	1250.12	1218.72	1210.72	1212.32	1201.52	1199.72	1203.72	1194.52	1213.22	1177.52	1155.72	1151.72	1167.72	1156.52	1157.72	1148.12	1148.12
462.972	13548.7	1043.21	1196.1	1183.5	1157.7	1199.7	1139.9	1121.7	1181.3	1135.5	1147.7	1143.3	1136.7	1163.7	1110.9	1123.9	1102.3	1128.5	1128.5
463.239	13694.1	1041.68	1205.2	1181.2	1181.8	1155.6	1147.4	1162.2	1130.6	1151.8	1165.6	1134	1167.8	1150.2	1128	1128.6	1110.8	1124.2	1124.2
463.505	13198.2	1033.56	1195.72	1171.92	1168.72	1153.92	1124.92	1151.12	1120.52	1134.72	1130.72	1131.12	1109.12	1136.12	1117.92	1078.92	1084.12	1090.32	1090.32
463.772	13333.8	1035.7	1209.37	1182.1	1159.3	1124.3	1149.7	1161.9	1151.3	1144.9	1120.7	1128.9	1126.9	1150.7	1090.5	1094.3	1135.1	1128.1	1128.1
464.039	13033.5	1039.06	1177.8	1170.2	1151	1151	1123.8	1151	1120.8	1115.2	1072	1112.2	1133.2	1098.2	1128.6	1083.2	1081	1096.6	1096.6
464.306	12955.3	1035.65	1168.51	1118.64	1161.04	1119.04	1132.64	1144.64	1122.84	1109.24	1073.64	1113.64	1077.04	1095.04	1095.44	1096.24	1090.04	1094.24	1094.24
464.572	12996.8	1038.12	1188.34	1158.54	1161.54	1131.94	1163.34	1149.34	1124.14	1126.54	1134.54	1154.94	1118.54	1122.74	1159.94	1102.74	1095.34	1098.54	1098.54
464.839	12916.5	1036.3	1192.21	1161.54	1130.74	1124.54	1139.74	1103.74	1125.14	1125.54	1121.34	1116.54	1128.74	1099.14	1094.54	1093.74	1069.34	1071.34	1071.34
465.105	12735.1	1029.86	1202.49	1175.36	1155.76	1149.76	1125.16	1124.16	1094.56	1141.36	1087.16	1102.96	1072.56	1101.26	1090.16	1084.56	1099.36	1085.56	1085.56
465.372	12546.4	1024.7	1160.65	1188.32	1147.92	1099.92	1150.52	1122.52	1115.92	1069.12	1115.72	1064.32	1090.52	1082.32	1086.52	1057.32	1084.52	1047.12	1047.12
465.638	12280.5	1037.18	1156.69	1149.76	1117.76	1125.16	1096.36	1095.96	1075.76	1098.96	1098.56	1064.36	1047.56	1080.36	1053.56	1102.16	1065.96	1055.16	1055.16
465.904	12254.1	1032.22	1153.72	1140.52	1106.32	1149.32	1093.92	1090.32	1063.12	1091.12	1050.12	1093.32	1081.32	1040.72	1052.72	1061.12	1025.72	1089.32	1089.32
466.17	12171.3	1048.02	1151.23	1104.16	1085.76	1102.56	1083.36	1093.16	1099.36	1047.56	1036.56	1077.16	1058.96	1054.56	1064.16	1054.16	1033.36	1032.96	1032.96
466.437	12023.6	1040.1	1128.28	1085.88	1138.88	1078.88	1054.28	1098.48	1082.28	1052.08	1058.48	1041.48	1069.08	1056.08	1069.28	1035.28	1034.88	1047.08	1047.08
466.703	11969.2	1043.78	1144.19	1127.72	1104.72	1137.92	1069.92	1084.52	1076.92	1075.32	1082.12	1075.92	1100.12	1105.52	1057.32	1043.52	1044.12	1040.52	1040.52
466.969	11916.4	1036.88	1137.33	1135.66	1069.66	1118.06	1089.26	1066.66	1073.26	1065.66	1079.86	1046.46	1077.66	1026.66	1056.26	1061.06	1070.46	1022.26	1022.26
467.235	11688.9	1041.06	1114.81	1100.34	1095.94	1094.34	1066.54	1047.74	1033.54	1087.94	1078.34	1044.94	1020.74	1061.14	1022.54	1027.54	1035.34	1035.74	1035.74
467.501	11871.9	1036.5	1159.21	1122.48	1111.88	1088.28	1086.48	1086.08	1069.48	1076.48	1086.48	1080.88	1059.28	1047.68	1036.68	1058.88	1055.68	1023.88	1023.88
467.767	11698.4	1031.59	1142.01	1110.08	1120.48	1069.28	1070.68	1061.88	1055.88	1059.08	1062.48	1051.48	1058.68	1050.68	1022.08	1025.08	1058.88	1022.28	1022.28
468.033	11582.6	1033.56	1113.91	1090.38	1088.18	1070.38	1045.38	1056.78	1019.38	1038.58	1063.98	1096.18	1032.38	999.18	1016.38	1011.58	1017.98	1019.38	1019.38
468.299	11393.1	1037.1	1123.26	1114.26	1058.86	1079.86	1075.86	1026.06	1004.86	1058.06	1067.86	1054.26	1040.06	1015.46	1028.06	1020.26	987.86	1036.86	1036.86
468.564	11450.2	1038.58	1092.9	1137.9	1056.9	1092.7	1089.3	1050.3	1072.5	1056.1	1049.1	1010.9	1013.1	993.1	1014.3	1047.9	1008.7	1028.3	1028.3
468.83	11283.4	1027.98	1123.43	1117.16	1071.16	1077.96	1072.76	1063.96	1042.76	1052.36	1025.96	1040.96	1040.56	1007.56	1032.96	1047.16	993.16	1005.96	1005.96
469.096	11187.6	1034.6	1109.94	1097.74	1061.14	1067.74	1076.34	1021.94	1047.34	1047.34	1034.54	1016.14	1028.14	1022.54	990.54	1035.14	1033.54	1019.34	1019.34
469.362	11150.6	1038.64	1116.68	1075.28	1068.68	1079.28	1056.08	1046.08	1061.88	1021.88	1022.48	1046.48	1035.08	1007.08	1006.88	987.88	1041.08	993.48	993.48
469.627	11077.8	1026.6	1113.87	1079.74	1069.74	1056.54	1055.94	1044.54	1086.74	1015.94	1024.14	1008.54	1010.34	1024.34	1000.14	1011.14	1009.34	1000.54	1000.54
469.893	11116.3	1040.24	1140.61	1098.34	1085.14	1040.34	1054.14	1057.34	1057.74	1040.54	1015.74	1033.54	1042.94	1039.54	1061.74	1029.94	990.34	1013.54	1013.54
470.158	11116.1	1037.26	1114.59	1124.52	1063.92	1053.72	1082.92	1054.12	1057.92	1032.72	999.92	1019.52	1032.12	1021.32	997.92	1020.92	1037.12	1012.72	1012.72
470.424	10895.8	1058.28	1121.53	1108.06	1009.06	1058.26	1010.46	1053.06	1029.26	1041.86	1037.06	1048.26	1013.26	1010.46	1009.06	1011.66	1038.46	1014.26	1014.26
470.689	10940.9	1034.04	1135.82	1128.42	1127.42	1065.42	1055.62	1055.82	1059.42	1028.82	1060.22	1046.62	1054.62	1049.02	1019.02	1009.62	1045.12	1025.02	1025.02
470.954	10801.6	1036.72	1110.75	1106.02	1047.42	1030.42	1052.82	1037.82	1033.82	1038.82	1026.22	1004.42	1024.82	1020.82	1005.62	1033.82	988.42	984.02	984.02
471.22	10696	1036.38	1112.58	1081.38	1035.58	1033.38	1004.78	1058.38	1000.38	1038.78	989.58	1002.38	1008.38	1027.78	999.58	1028.18	994.78	974.38	974.38
471.485	10713.5	1044.44	1105.39	1061.52	1047.72	1073.72	1045.72	1058.52	1023.52	1024.72	1020.72	1040.72	1018.12	1012.32	1024.72	1005.72	990.52	1000.52	1000.52
471.75	10715.2	1033.57	1107.19	1094.92	1075.92	1054.92	1062.72	1049.12	1057.52	1021.12	984.32	1040.92	1004.92	1015.72	1009.72	1029.12	992.52	995.92	995.92
472.015	10608.6	1034.1	1099.05	1052.12	1060.12	1011.12	1057.12	1034.32	1026.52	1017.32	990.72	1030.32	1019.72	1004.32	1014.72	990.32	982.52	986.92	986.92
472.28	10616.4	1038.06	1116.17	1067.04	1069.24	1070.04	1045.84	1042.44	1038.44	1017.84	992.64	1022.24	1023.64	1010.24	1010.64	1020.04	1009.44	980.04	980.04
472.545	10487.6	1035.3	1122.54	1065.74	1035.34	1047.54	1031.54	1050.54	1027.94	1036.54	996.94	1018.14	1040.74	997.94	993.94	998.74	991.34	976.94	976.94
472.81	10429.2	1034.24	1126.91	1074.58	1038.78	1040.18	1041.18	1037.58	1045.38	1013.38	1015.58	1023.98	1025.38	991.58	1003.38	983.98	973.38	979.18	979.18
473.075	10434.3	1031.7	1121.63	1087.3	1045.3	1061.9	1035.1	1024.7	1026.7	1023.1	1047.7	1018.1	996.7	1052.5	1033.3	996.9	990.5	1004.9	1004.9
473.34	10375.5	1039.06	1115.05	1050.78	1024.38	1088.78	1059.98	1065.58	1057.58	998.38	1042.78	1000.98	1030.98	1014.18	989.58	992.78	1000.38	980.58	980.58
473.605	10408.3	1033.3	1131.91	1083.84	1045.24	1087.44	1045.04	1036.64	1036.64	1035.24	1035.24	1029.64	1028.04	988.24	994.64	997.04	987.24	1009.64	1009.64
473.869	10335.1	1037.48	1127.91	1066.78	1076.78	1119.38	1060.98	1048.58	1091.98	1042.18	1037.38	1032.78	983.98	1024.98	1025.18	1018.18	1038.38	1013.38	1013.38
474.134	10361.3	1034.92	1132.13	1080.06	1093.86	1057.26	1056.06	1031.26	1049.86	1038.06	1009.06	1020.66	1029.26	1003.06	1042.26	1005.46	1014.26	1022.26	1022.26
474.399	10292	1042.88	1138.68	1075.08	1104.48	1053.48	1039.08	1016.88	1037.28	1021.08	1033.88	1021.08	1049.48	1025.28	1044.88	1019.48	1010.88	1003.68	1003.68
474.663	10273.1	1042.36	1155.98	1067.78	1093.58	1074.78	1064.38	1070.58	1043.18	1042.58	1004.78	1026.78	1047.78	1002.78	1058.58	1019.38	994.38	1009.78	1009.78
474.928	10243.8	1035.44	1137.02	1085.02	1083.22	1093.62	1084.62	1038.42	1068.42	1052.42	1038.62	1035.42	1018.42	991.82	1015.22	1000.82	975.82	1021.42	1021.42
475.192	10164.9	1037.36	1125.69	1066.02	1062.82	1078.02	1064.42	1052.22	1034.82	1057.42	1025.02	1028.02	1035.02	1007.02	1012.62	1029.42	994.62	1033.62	1033.62
475.457	10254.6	1032.3	1140.81	1068.34	1081.34	1118.54	1045.54	1047.34	1048.34	1034.54	1030.74	1015.74	1021.74	1035.74	1065.14	1018.74	1016.74	1030.34	1030.34
475.721	10234.6	1036.9	1135.12	1128.52	1056.52	1071.72	1059.12	1077.12	1059.72	1017.92	1035.92	1039.52	1008.92	1034.12	1014.92	987.32	995.52	990.52	990.52
475.985	10273.7	1030.06	1134.35	1145.88	1087.48	1070.68	1065.88	1102.28	1046.08	1046.68	1045.28	1036.28	1001.28	1050.08	1031.28	1019.68	1049.88	1039.08	1039.08
476.25	10338.7	1034.4	1167.43	1114.76	1069.96	1086.96	1084.76	1096.36	1044.96	1055.56	1066.56	1054.16	1014.76	1063.96	1029.96	989.96	1010.96	993.96	993.96
476.514	10362.4	1037.84	1157.42	1116.62	1103.22	1076.82	1076.82	1111.22	1111.02	1077.22	1061.02	1037.02	1065.02	1014.22	1044.62	1046.02	1053.62	1039.82	1039.82
476.778	10455.6	1032.96	1176.71	1110.78	1101.78	1077.38	1074.78	1101.78	1063.78	1078.98	1060.18	1049.98	1099.98	1045.18	1048.38	1049.98	1014.98	1052.38	1052.38
477.042	10480.3	1031.68	1173.75	1136.42	1137.42	1080.02	1079.62	1077.62	1096.62	1073.02	1066.62	1076.42	1075.42	1055.02	1051.82	1053.02	1026.42	1046.22	1046.22
477.306	10628.3	1045.72	1217.19	1174.52	1173.32	1134.92	1114.52	1129.12	1099.32	1055.12	1101.12	1088.72	1100.72	1081.12	1087.52	1038.12	1093.12	1068.12	1068.12
477.57	10558.1	1032.3	1213.15	1177.42	1143.82	1126.82	1118.82	1105.02	1092.62	1113.62	1111.22	1101.22	1073.22	1117.82	1047.22	1070.22	1077.22	1074.22	1074.22
477.834	10622	1039.7	1217.43	1186.96	1138.16	1165.56	1118.16	1135.16	1114.16	1118.36	1112.76	1094.96	1089.36	1088.96	1102.96	1097.76	1086.96	1093.76	1093.76
478.098	10753.8	1036.86	1235.39	1197.72	1176.12	1148.92	1160.92	1150.72	1142.52	1119.72	1091.92	1069.72	1111.52	1101.72	1110.32	1109.72	1098.52	1082.92	1082.92
478.362	10730.5	1035.7	1234.85	1180.12	1167.12	1151.12	1133.12	1157.32	1142.92	1093.32	1092.92	1095.72	1113.12	1124.92	1089.72	1060.32	1084.12	1085.72	1085.72
478.626	11036.7	1039.94	1284.82	1227.92	1184.12	1160.32	1179.72	1189.32	1183.52	1105.92	1162.72	1152.72	1133.72	1118.32	1129.12	1160.32	1118.72	1146.92	1146.92
478.89	10958.1	1035.18	1271.43	1193.5	1194.5	1181.9	1151.3	1166.5	1133.3	1120.7	1136.7	1155.5	1137.3	1131.7	1114.9	1109.1	1101.1	1116.3	1116.3
479.153	11088.4	1040.18	1272.13	1239.66	1197.66	1182.06	1187.06	1154.86	1184.06	1204.86	1191.46	1157.86	1182.06	1139.06	1117.46	1093.26	1118.66	1101.06	1101.06
479.417	11133.5	1040.32	1284.85	1234.98	1222.78	1238.18	1193.58	1127.58	1196.58	1164.18	1167.38	1154.18	1160.78	1106.38	1177.38	1138.18	1124.58	1120.18	1120.18
479.681	11266.8	1028.78	1332.58	1289.98	1262.98	1225.98	1216.58	1193.38	1225.78	1195.98	1236.98	1170.78	1180.38	1146.98	1180.98	1175.78	1180.78	1162.18	1162.18
479.944	11401.1	1033.94	1318.79	1252.52	1241.12	1217.12	1211.72	1219.52	1218.32	1200.92	1211.92	1167.12	1200.72	1165.52	1185.32	1178.92	1188.32	1170.52	1170.52
480.208	11477.7	1029.9	1325.75	1288.62	1266.02	1262.42	1232.62	1253.42	1293.02	1222.82	1251.22	1162.02	1235.02	1179.82	1182.22	1169.62	1182.82	1201.42	1201.42
480.471	11500.4	1039.97	1375.96	1276.76	1331.36	1280.16	1277.36	1219.96	1242.36	1262.76	1239.96	1201.96	1195.96	1197.76	1187.96	1194.36	1202.76	1184.56	1184.56
480.734	11539.4	1041.62	1376.92	1323.92	1296.12	1287.32	1244.32	1250.52	1235.32	1244.92	1211.92	1224.12	1199.92	1239.12	1228.92	1188.92	1234.52	1182.72	1182.72
480.998	11647.5	1033.46	1366.38	1292.58	1313.38	1279.78	1247.78	1275.78	1259.98	1232.58	1225.38	1255.78	1218.38	1219.78	1208.18	1238.18	1217.18	1184.78	1184.78
481.261	11911.1	1028.4	1413.19	1327.86	1335.46	1333.46	1271.06	1282.66	1264.46	1258.86	1255.26	1268.26	1226.86	1270.26	1240.86	1291.26	1234.66	1254.26	1254.26
481.524	11923.7	1036.12	1422.46	1401.26	1347.26	1335.06	1313.86	1343.66	1281.86	1324.46	1256.26	1283.26	1261.66	1231.66	1242.66	1257.86	1272.46	1237.66	1237.66
481.787	11986.2	1036.12	1435.41	1417.68	1401.68	1365.48	1308.88	1332.28	1338.88	1263.68	1312.68	1299.08	1287.28	1295.68	1292.28	1286.28	1262.48	1245.28	1245.28
482.051	12246.3	1035.14	1481.27	1446.2	1401.6	1413.6	1389	1344.4	1332.4	1324	1324	1315.8	1347.2	1307.2	1301	1274.2	1279.2	1268.6	1268.6
482.314	12297	1040.52	1500.05	1420.52	1383.72	1401.92	1360.72	1372.92	1335.52	1394.32	1318.92	1305.72	1340.52	1305.92	1329.92	1324.52	1263.72	1301.12	1301.12
482.577	12406.5	1034.72	1515.43	1416.1	1384.1	1400.5	1382.7	1406.5	1356.9	1363.1	1332.3	1325.3	1344.3	1335.5	1334.5	1310.9	1305.9	1325.7	1325.7
482.84	12674.9	1034.1	1542.97	1494.44	1422.44	1427.04	1414.64	1397.44	1406.84	1428.24	1400.04	1385.04	1376.44	1339.64	1358.84	1365.44	1334.44	1340.04	1340.04
483.102	12501.2	1028.46	1544.24	1412.24	1442.24	1430.64	1413.24	1365.84	1387.44	1358.64	1403.24	1387.44	1350.84	1319.24	1323.84	1357.84	1327.04	1305.04	1305.04
483.365	12715.6	1043.72	1573.29	1493.82	1476.82	1439.42	1423.82	1426.22	1413.42	1392.82	1409.82	1366.82	1371.42	1391.42	1356.02	1373.22	1378.82	1349.62	1349.62
483.628	12905.9	1033.6	1599.35	1516.42	1464.62	1493.22	1437.62	1467.62	1437.82	1450.42	1413.42	1408.62	1378.82	1397.22	1389.62	1380.82	1381.82	1383.42	1383.42
483.891	12874	1042.8	1587.98	1518.58	1504.78	1485.58	1467.98	1432.98	1434.98	1464.78	1421.58	1413.78	1383.58	1385.18	1357.78	1337.18	1387.18	1363.18	1363.18
484.154	13190.5	1037.82	1648.49	1544.62	1526.62	1502.42	1511.22	1490.62	1490.82	1515.22	1474.02	1454.02	1450.22	1422.22	1434.62	1454.02	1402.62	1427.22	1427.22
484.416	13314.3	1029.3	1678.43	1599.36	1586.76	1532.56	1551.96	1504.76	1521.76	1496.96	1485.56	1452.96	1486.16	1459.36	1472.96	1454.56	1421.16	1437.56	1437.56
484.679	13283.3	1039.18	1675.63	1562.96	1578.96	1506.36	1521.76	1530.76	1503.96	1514.96	1466.96	1476.76	1450.76	1472.56	1512.76	1433.36	1443.96	1466.36	1466.36
484.941	13597.6	1033.08	1712.97	1607.84	1547.64	1567.24	1542.64	1555.24	1564.44	1515.04	1493.44	1491.24	1465.64	1493.24	1491.44	1487.24	1457.84	1530.84	1530.84
485.204	13614.5	1033.74	1721.82	1602.22	1594.82	1561.42	1561.82	1577.62	1540.22	1538.82	1525.42	1502.42	1528.82	1503.62	1495.82	1486.02	1440.22	1486.22	1486.22
485.466	13767.4	1031.92	1760.81	1627.34	1619.54	1627.74	1571.34	1599.14	1613.94	1562.94	1561.74	1541.34	1537.54	1518.54	1497.34	1534.14	1510.94	1477.54	1477.54
485.729	13726.4	1043.24	1768.89	1643.22	1622.62	1626.42	1600.02	1567.82	1599.02	1569.62	1568.42	1559.42	1542.22	1507.82	1563.22	1495.42	1529.22	1483.82	1483.82
485.991	13966	1021.28	1831.72	1707.12	1687.72	1652.32	1630.92	1637.52	1613.52	1614.32	1599.92	1563.72	1604.92	1536.52	1599.12	1584.92	1542.52	1518.52	1518.52
486.253	14150.9	1040.1	1846.34	1708.64	1718.04	1642.44	1664.84	1659.54	1659.34	1604.54	1618.04	1625.34	1576.64	1603.34	1567.44	1549.24	1535.24	1573.64	1573.64
486.516	14360.2	1047.62	1894.31	1765.58	1719.58	1711.58	1701.28	1659.98	1662.58	1651.18	1649.18	1598.38	1595.38	1590.18	1614.18	1564.18	1592.38	1598.78	1598.78
486.778	14360.1	1042.78	1866.99	1769.26	1755.26	1745.06	1673.46	1708.86	1670.26	1654.66	1616.86	1625.06	1593.26	1592.86	1566.66	1613.46	1601.46	1605.26	1605.26
487.04	14644.7	1043.69	1923.72	1777.92	1780.32	1743.12	1718.12	1708.52	1706.32	1688.32	1694.32	1654.92	1666.52	1629.72	1662.92	1639.32	1619.32	1597.72	1597.72
487.302	14709.7	1043.8	1929.43	1792.56	1772.96	1766.56	1718.56	1726.36	1697.16	1697.76	1705.16	1659.36	1663.36	1689.16	1638.16	1685.56	1641.76	1643.36	1643.36
487.564	14827.2	1034.06	1933.93	1828.86	1805.66	1767.26	1729.26	1719.06	1727.26	1731.06	1728.26	1703.66	1706.26	1664.26	1662.46	1694.06	1670.26	1663.26	1663.26
487.826	15072.3	1035.28	1979.77	1868.5	1854.9	1836.5	1782.3	1779.5	1766.1	1766.9	1737.3	1702.7	1724.5	1715.1	1681.1	1679.1	1691.1	1687.1	1687.1
488.088	15093.7	1044.62	1983.07	1876.94	1822.74	1843.34	1809.34	1766.14	1770.54	1749.14	1756.74	1755.34	1762.94	1725.14	1696.54	1710.14	1651.94	1706.34	1706.34
488.35	15289.4	1039.85	2005.67	1911.07	1810.07	1862.67	1804.47	1821.07	1768.47	1765.07	1753.27	1749.27	1719.07	1761.87	1704.47	1727.67	1709.67	1698.07	1698.07
488.612	15356	1039.7	2035.03	1952.36	1876.56	1846.56	1885.36	1842.96	1804.36	1812.36	1781.56	1800.76	1747.56	1762.56	1731.56	1760.36	1692.96	1705.96	1705.96
488.873	15637.7	1035.74	2101.65	1918.72	1950.52	1882.92	1862.52	1811.32	1807.02	1843.52	1829.52	1790.72	1792.12	1796.32	1764.12	1770.12	1745.52	1731.92	1731.92
489.135	15658.5	1040.26	2096.44	2008.04	1907.64	1907.04	1917.04	1888.04	1883.64	1865.84	1869.84	1790.04	1850.04	1811.24	1777.64	1778.84	1786.24	1782.04	1782.04
489.397	15902	1040.2	2125.49	2018.82	1950.42	1910.82	1922.82	1920.22	1880.22	1878.82	1852.42	1890.22	1868.82	1836.22	1805.22	1776.62	1775.42	1788.42	1788.42
489.658	16112.9	1040.44	2193.61	2042.08	2026.08	1969.68	1946.68	1954.88	1915.88	1924.88	1934.08	1842.48	1877.88	1874.48	1863.48	1842.68	1848.68	1829.28	1829.28
489.92	16315.7	1040.28	2187.28	2065.28	2039.28	1981.28	1988.08	1969.08	1910.88	1913.68	1908.28	1931.28	1905.68	1863.08	1878.08	1863.48	1832.68	1840.48	1840.48
490.181	16500.1	1030.54	2238.63	2092.9	2029.5	2029.5	2012.3	2011.5	1983.9	1949.3	1963.3	1923.9	1936.3	1933.9	1896.5	1892.5	1884.5	1880.1	1880.1
490.443	16623.8	1045.24	2270.3	2119.9	2086.7	2086.3	2020.5	2017.1	2080.7	1974.7	1988.7	1957.9	1928.3	1940.3	1929.5	1890.9	1897.3	1919.3	1919.3
490.704	16684	1038.58	2300.64	2147.94	2068.94	2069.34	2058.14	2018.34	2016.14	1995.34	2017.74	1973.94	1960.74	1939.74	1968.74	1933.14	1888.94	1898.14	1898.14
490.966	16896.7	1040.86	2316.23	2191.7	2154.8	2127.5	2067.7	2054.9	2093.3	2037.7	2006.3	2016.9	2011.7	1990.3	1999.5	1943.5	1950.9	1926.9	1926.9
491.227	17126.1	1035.42	2363.76	2227.96	2179.56	2161.76	2091.76	2114.36	2064.76	2037.96	2038.56	2001.76	2032.36	2016.56	1970.76	1968.76	1976.36	1994.96	1994.96
491.488	17251.7	1034.92	2393.99	2256.12	2190.72	2165.12	2122.72	2127.52	2086.52	2100.72	2063.52	2029.92	2036.92	2006.52	2025.32	2011.32	2018.52	1978.92	1978.92
491.749	17444.2	1030.7	2420.71	2247.38	2241.18	2167.18	2179.78	2143.58	2162.78	2114.98	2075.38	2067.38	2071.58	2045.98	2041.18	2041.98	1991.38	2015.58	2015.58
492.01	17616.9	1040.92	2445.73	2302.06	2223.66	2194.86	2201.66	2167.46	2143.66	2155.06	2129.26	2068.66	2095.46	2039.46	2035.66	2027.26	2067.06	2020.86	2020.86
492.271	17792.2	1031.52	2470.01	2299.54	2304.94	2221.94	2216.14	2218.54	2193.74	2184.74	2158.94	2147.74	2077.14	2106.54	2111.14	2078.74	2045.94	2052.34	2052.34
492.533	18010.4	1038.88	2491.39	2381.06	2333.46	2275.26	2210.66	2214.66	2194.66	2190.26	2204.86	2125.46	2140.46	2160.46	2137.66	2115.06	2097.86	2115.66	2115.66
492.793	18186.8	1044.08	2533.08	2380.48	2333.08	2323.88	2269.08	2295.28	2217.68	2205.28	2180.68	2185.88	2160.48	2147.28	2169.68	2120.68	2151.08	2076.48	2076.48
493.054	18333	1038.56	2576.07	2365.6	2393.8	2320.2	2269	2287.4	2244	2262.2	2232.4	2257.8	2222.8	2170.6	2197.4	2164	2164.4	2169.6	2169.6
493.315	18475.6	1039.22	2604.88	2422.88	2432.28	2357.48	2372.28	2308.28	2310.48	2274.08	2291.88	2241.08	2227.28	2236.68	2203.68	2198.68	2183.08	2168.08	2168.08
493.576	18755.4	1037.38	2664.15	2488.62	2454.62	2469.22	2353.62	2307.22	2359.42	2281.02	2259.02	2263.02	2284.82	2282.82	2228.22	2220.02	2239.42	2191.02	2191.02
493.837	18870.4	1049.58	2688.64	2489.44	2449.24	2428.84	2413.64	2332.64	2338.64	2313.84	2288.84	2270.84	2267.44	2278.44	2247.84	2233.44	2218.24	2205.64	2205.64
494.098	19082.7	1035.96	2711.85	2550.38	2453.38	2430.18	2390.38	2392.98	2394.78	2374.78	2346.98	2262.18	2306.78	2292.78	2276.78	2301.58	2263.58	2276.18	2276.18
494.358	19311.7	1037.8	2754.4	2591.4	2512.4	2505	2399.8	2387.4	2425.4	2369.6	2404.8	2378.4	2353.8	2312	2334	2324.4	2345.2	2317.6	2317.6
494.619	19488.5	1034.58	2785.61	2599.08	2508.68	2511.48	2490.28	2450.08	2437.68	2394.08	2400.68	2390.88	2418.68	2359.68	2355.88	2354.48	2310.28	2331.28	2331.28
494.879	19568.4	1039.86	2824.57	2618.04	2555.04	2534.24	2506.24	2438.24	2503.44	2483.04	2420.84	2414.64	2412.84	2400.64	2405.24	2375.44	2356.84	2352.44	2352.44
495.14	19827.8	1041.64	2885.18	2679.38	2610.58	2586.98	2566.98	2504.58	2544.58	2497.78	2478.18	2466.58	2415.98	2424.78	2416.98	2418.98	2393.98	2418.98	2418.98
495.4	20080.9	1039.76	2900.97	2707.24	2619.84	2605.24	2621.64	2566.64	2533.04	2556.84	2484.24	2474.04	2490.24	2479.84	2463.24	2474.84	2397.64	2426.44	2426.44
495.661	20109.8	1039.02	2923.29	2772.16	2670.36	2669.16	2577.96	2589.56	2562.16	2587.56	2502.56	2525.96	2516.76	2540.36	2460.96	2456.36	2443.96	2460.96	2460.96
495.921	20342.7	1043.04	2978.81	2768.74	2686.14	2710.94	2664.74	2623.94	2622.54	2595.34	2513.74	2564.74	2563.74	2516.94	2504.74	2502.54	2496.54	2459.74	2459.74
496.181	20488.9	1055.32	3035.89	2793.22	2744.02	2681.22	2699.22	2685.62	2660.02	2612.82	2619.22	2576.62	2530.02	2538.22	2565.62	2571.22	2483.62	2493.42	2493.42
496.442	20825.7	1047.42	3067.53	2868.66	2807.66	2808.26	2694.06	2685.66	2666.46	2660.86	2692.46	2649.86	2633.86	2602.26	2596.46	2600.46	2545.26	2509.46	2509.46
496.702	21008.7	1046.2	3116.76	2917.56	2834.96	2818.96	2765.76	2771.96	2703.36	2657.36	2697.76	2660.16	2639.56	2638.76	2631.56	2607.36	2588.96	2568.96	2568.96
496.962	21119.8	1034.98	3148.63	2919.9	2861.5	2840.1	2809.9	2754.3	2726.3	2690.3	2716.7	2632.1	2671.9	2676.9	2612.7	2600.3	2648.1	2590.5	2590.5
497.222	21356.8	1035.4	3217.51	2941.98	2937.38	2865.38	2811.78	2802.58	2790.18	2809.18	2773.58	2730.58	2747.98	2711.18	2685.18	2685.78	2681.78	2680.58	2680.58
497.482	21508.3	1035.94	3241.59	3004.86	2964.96	2910.96	2874.96	2867.16	2848.16	2802.96	2792.36	2785.96	2736.36	2709.36	2734.76	2692.56	2696.36	2666.16	2666.16
497.742	21586.8	1036.3	3292.59	3032.26	2981.26	2938.46	2907.06	2842.66	2838.26	2839.86	2819.86	2811.66	2780.86	2731.26	2740.46	2734.46	2680.26	2716.46	2716.46
498.002	21917.5	1035.72	3335.71	3095.78	3031.78	3003.38	2995.98	2943.58	2908.98	2840.58	2840.38	2849.38	2797.78	2803.18	2803.98	2769.98	2734.78	2744.98	2744.98
498.262	22165.7	1047.48	3394.77	3106.3	3078.7	3021.7	2979	2954.1	2919.1	2902.4	2924.3	2923.7	2881.5	2810.7	2827.3	2831.3	2783.5	2800.1	2800.1
498.522	22279	1044.52	3420.39	3212.52	3120.52	3042.92	3091.52	2964.92	2991.12	2958.32	2943.12	2926.52	2892.12	2940.92	2880.52	2911.52	2860.12	2848.12	2848.12
498.781	22443.3	1036.92	3459.49	3172.42	3140.22	3068.02	3077.42	3024.82	2924.82	2958.62	2964.42	2891.62	2932.22	2982.02	2860.82	2859.22	2854.62	2853.02	2853.02
499.041	22601.5	1036.06	3510.91	3255.11	3167.51	3147.11	3065.71	3032.71	3017.51	3031.31	2993.31	2944.11	2984.71	2974.51	2907.91	2951.31	2924.11	2888.51	2888.51
499.301	22925.4	1032.78	3560.09	3281.96	3196.16	3167.16	3117.76	3107.56	3088.16	3043.76	3008.76	3049.96	2964.16	2991.16	2974.06	2945.16	2911.96	2906.36	2906.36
499.56	23103.6	1040.84	3596.34	3314.54	3281.54	3217.34	3187.54	3141.34	3155.54	3115.54	3063.34	3064.34	3046.74	3036.54	3016.74	3019.34	2982.74	2935.94	2935.94
499.82	23135.8	1039.24	3609.47	3326.6	3258.8	3227.2	3191.8	3179.2	3166.6	3170.2	3086.2	3081.6	3073.4	3065.8	3032.2	2954.4	2998.8	3008.8	3008.8
500.079	23392.4	1033.16	3656.73	3335.26	3307.26	3277.26	3255.66	3181.46	3169.06	3135.46	3124.66	3172.86	3084.66	3059.26	3085.86	3035.66	3059.46	3038.06	3038.06
500.339	23650.3	1046.82	3750.21	3412.64	3338.64	3349.04	3303.04	3224.04	3236.84	3225.04	3233.24	3155.84	3154.24	3097.24	3088.24	3128.04	3064.24	3051.64	3051.64
500.598	23886.1	1036.7	3781.95	3490.28	3385.88	3386.88	3343.88	3316.48	3315.68	3252.08	3276.08	3199.28	3212.88	3186.88	3153.08	3156.48	3121.08	3162.68	3162.68
500.858	24003.8	1051.56	3833.19	3506.86	3427.26	3389.06	3346.86	3417.66	3305.06	3254.26	3255.26	3233.66	3226.86	3232.46	3224.66	3162.26	3135.46	3165.66	3165.66
501.117	24347.7	1048.3	3907.52	3565.32	3486.32	3452.52	3444.72	3450.52	3382.12	3301.72	3327.32	3266.72	3236.32	3306.32	3256.12	3198.52	3226.52	3164.52	3164.52
501.376	24540.9	1030.27	3945.19	3644.06	3550.46	3532.26	3428.66	3391.46	3392.66	3348.26	3315.06	3313.06	3284.46	3260.46	3308.46	3262.66	3241.06	3219.26	3219.26
501.635	24637.9	1035.36	3994.53	3647.2	3583.8	3548.6	3504.8	3486.4	3453.4	3398.8	3360.8	3393.4	3335.4	3301	3334.2	3286.2	3276.2	3290.8	3290.8
501.895	24783.7	1037.04	4017.85	3709.98	3595.18	3556.58	3530.18	3538.58	3501.98	3446.78	3384.18	3414.38	3407.78	3370.78	3370.38	3383.58	3310.98	3398.38	3398.38
502.154	24927.3	1035.62	4068.71	3730.78	3631.58	3608.18	3574.18	3554.38	3500.78	3476.58	3480.18	3467.58	3388.38	3404.58	3404.58	3373.38	3353.98	3330.58	3330.58
502.413	24991.6	1039.36	4096.41	3721.08	3667.88	3671.28	3588.68	3616.08	3560.88	3507.48	3460.28	3483.08	3406.48	3451.88	3411.08	3401.68	3401.28	3371.28	3371.28
502.672	25533.6	1038.24	4201.4	3872.2	3744.6	3749.2	3704.2	3652	3611.2	3587.8	3531.4	3509	3511	3557.2	3494.6	3485.8	3461.8	3460	3460
502.931	25639.9	1034.96	4214.81	3875.48	3807.88	3733.28	3697.48	3674.68	3606.68	3561.48	3604.48	3558.28	3545.48	3484.68	3517.48	3470.28	3460.08	3488.28	3488.28
503.189	25704.2	1042.86	4267.95	3941.62	3855.82	3729.82	3771.62	3716.42	3708.02	3618.82	3636.42	3601.82	3609.22	3593.42	3509.62	3549.02	3500.42	3528.82	3528.82
503.448	26019.6	1038.8	4319.53	3961.6	3868.4	3866.8	3770.4	3767.8	3711	3644.2	3703.6	3699.2	3647	3648.6	3575.2	3561.8	3539.8	3539	3539
503.707	26159.6	1038.72	4313.51	3955.84	3920.64	3838.64	3836.04	3723.64	3746.04	3720.24	3697.44	3699.44	3640.24	3668.84	3591.84	3637.44	3629.24	3580.84	3580.84
503.966	26426.6	1039.62	4385.07	4042.94	3925.94	3950.94	3908.14	3826.74	3822.94	3823.34	3735.74	3748.34	3711.74	3676.74	3727.14	3712.34	3607.54	3650.94	3650.94
504.224	26532.7	1038.38	4441.49	4071.76	4008.56	3951.76	3899.36	3914.36	3819.56	3817.76	3777.96	3790.56	3764.96	3725.96	3712.36	3707.76	3695.76	3640.56	3640.56
504.483	26813.8	1035.2	4507.85	4160.78	4119.58	4044.78	3983.58	3973.58	3912.78	3921.98	3846.58	3830.58	3839.98	3819.58	3779.78	3752.38	3717.98	3696.38	3696.38
504.742	26992.3	1031.8	4564.69	4208.16	4134.36	4102.56	4028.96	3962.96	3978.56	3894.56	3915.56	3854.76	3903.16	3873.96	3793.96	3764.16	3744.96	3791.96	3791.96
505	27224	1044.04	4651.97	4269.7	4205.9	4125.7	4044.7	4041.5	3991.1	3978.5	3974.5	3947.3	3906.3	3877.1	3892.1	3837.9	3863.3	3796.3	3796.3
505.259	27189.8	1046.02	4624.93	4315.86	4190.66	4126.46	4097.86	4075.06	4011.66	4007.86	3927.66	3925.86	3888.46	3936.26	3886.86	3870.06	3835.86	3796.86	3796.86
505.517	27360	1047.5	4706.67	4317.6	4168.8	4145.8	4133.2	4099	4044	4024.2	4012.8	3985.8	3976.3	3945.4	3923.8	3904	3937.8	3835	3835
505.775	27571.1	1037.36	4776.05	4385.98	4246.78	4224.58	4210.18	4133.58	4082.18	4096.18	4089.18	4015.78	4010.18	3975.18	3977.78	3928.18	3991.58	3906.98	3906.98
506.034	27700.5	1041.04	4829.81	4498.88	4333.88	4273.28	4302.08	4174.88	4141.28	4131.88	4052.08	4089.08	4071.08	4006.88	4025.08	4031.08	3996.68	4005.08	4005.08
506.292	27940.6	1033.62	4865.11	4482.38	4341.38	4328.58	4260.78	4233.58	4252.58	4195.98	4131.18	4111.78	4099.58	4077.58	4085.18	4111.58	4042.58	4029.98	4029.98
506.55	28132.5	1044.3	4962.76	4508.76	4490.56	4431.76	4311.96	4329.16	4274.96	4255.76	4258.36	4170.16	4153.96	4125.76	4121.96	4116.56	4057.56	4080.96	4080.96
506.808	28223.6	1038.22	5003.75	4600.88	4467.48	4453.68	4413.48	4314.48	4290.88	4320.68	4280.68	4213.28	4171.68	4189.48	4113.88	4127.48	4065.48	4109.68	4109.68
507.066	28487	1036.54	5041.7	4658.5	4520.7	4474.3	4464.3	4387.9	4304.7	4343.3	4289.3	4313.9	4240.1	4254.1	4206.1	4204.5	4161.5	4172.3	4172.3
507.324	28684.5	1038.5	5118.57	4690.7	4544.9	4517.5	4484.9	4460.7	4446.1	4365.5	4316.5	4270.9	4302.7	4246.7	4251.7	4221.7	4147.9	4160.3	4160.3
507.582	28904.4	1031.2	5149.93	4717.4	4595	4586.4	4504.8	4485	4475.2	4406.8	4382.4	4353.6	4323.2	4289.6	4293	4302.4	4200.6	4252.4	4252.4
507.84	29026	1038.48	5186.07	4788.2	4681.2	4600.4	4565.2	4530.2	4468	4493.8	4453.8	4376.6	4376.6	4356.2	4322.6	4351.8	4246	4266.4	4266.4
508.098	29361.5	1036.6	5279.66	4848.26	4722.66	4694.86	4570.66	4518.86	4538.46	4550.86	4457.86	4429.46	4415.86	4425.06	4361.06	4346.46	4325.46	4327.46	4327.46
508.356	29506	1033.88	5342.45	4890.18	4803.38	4703.58	4691.78	4619.18	4561.58	4538.18	4507.38	4538.98	4483.78	4470.18	4447.98	4421.78	4437.38	4376.58	4376.58
508.614	29514.2	1045.58	5357.31	4908.38	4813.18	4725.58	4716.98	4705.38	4679.58	4535.58	4524.78	4516.98	4491.98	4464.78	4428.78	4419.78	4382.38	4406.58	4406.58
508.871	30050	1039.82	5461.8	4988	4907.2	4816.4	4800.2	4766	4734	4712.4	4640.8	4600.2	4613.2	4569.4	4520.6	4482.4	4501.2	4488.2	4488.2
509.129	30253.7	1032.44	5483.4	5054.8	4961.8	4881	4868.8	4773.8	4770.2	4744	4653.2	4670.2	4680.2	4607.2	4596.8	4503.8	4541.6	4515.8	4515.8
509.387	30465.1	1038.06	5535.69	5070.96	4996.16	4955.76	4873.76	4822.96	4822.56	4702.76	4726.76	4728.16	4713.56	4667.96	4645.76	4630.96	4566.96	4525.36	4525.36
509.644	30688	1049.8	5621.92	5138.52	5069.32	4979.12	4901.52	4889.52	4856.72	4864.52	4753.12	4710.12	4774.32	4694.12	4751.12	4689.92	4617.12	4601.72	4601.72
509.902	30703.1	1046.54	5628.89	5150.82	5133.02	5016.02	4948.22	4985.82	4901.02	4891.62	4815.62	4801.62	4741.22	4704.82	4773.02	4689.42	4651.82	4672.82	4672.82
510.159	30959.6	1030.54	5710.44	5239.44	5157.84	5079.84	5042.04	4995.84	4927.64	4902.04	4831.44	4810.04	4814.44	4835.04	4758.84	4720.24	4692.64	4663.64	4663.64
510.417	31191.5	1044.1	5744.45	5277.98	5195.18	5116.18	5003.58	4968.18	4994.58	4930.38	4905.18	4835.38	4823.78	4832.98	4813.58	4773.58	4759.78	4679.18	4679.18
510.674	31248.4	1040.64	5807.79	5324.12	5190.72	5116.12	5087.32	5009.32	5011.32	4931.32	4901.32	4915.92	4833.12	4831.92	4823.92	4812.32	4785.92	4755.72	4755.72
510.931	31618	1043.62	5915.8	5438.8	5297.8	5216	5115.6	5090	5085.6	5037	5003.4	4988.4	4908.4	4927.4	4904.8	4895	4849.6	4804.4	4804.4
511.189	31697.1	1037.26	5963.67	5429.14	5335.94	5266.74	5169.14	5144.54	5092.74	5056.34	5083.14	5025.74	5004.34	4977.14	4991.94	4907.94	4948.34	4902.34	4902.34
511.446	31801.7	1042.1	5983.59	5473.12	5432.72	5318.32	5247.52	5185.52	5198.32	5096.12	5070.92	5030.72	5043.32	4996.92	5003.52	5003.12	4966.12	4920.32	4920.32
511.703	32021.3	1034.22	6070.89	5530.62	5443.82	5329.42	5334.62	5277.22	5227.62	5177.22	5196.82	5076.42	5073.22	5073.62	5044.42	5036.42	5050.02	4963.22	4963.22
511.96	32271.7	1037.8	6134.07	5618.6	5503.4	5348.4	5371.8	5326.8	5288	5273.2	5235.8	5195.6	5142.6	5133	5089.2	5096.2	5060.4	5064	5064
512.217	32259.5	1033.36	6188.37	5628.3	5552.3	5416.5	5381.7	5351.3	5347.1	5266.9	5277.9	5215.9	5183.3	5212.3	5164.3	5134.9	5102.7	5032.3	5032.3
512.474	32373.9	1036.88	6252.23	5699.3	5570.9	5445.9	5395.3	5375.7	5379.7	5315.1	5280.1	5243.7	5230.9	5149.1	5220.3	5145.5	5166.9	5109.1	5109.1
512.731	32480.9	1040.32	6310.23	5746.16	5591.76	5567.36	5467.96	5500.96	5469.36	5378.76	5342.56	5299.76	5263.76	5289.36	5265.36	5196.16	5213.96	5174.56	5174.56
512.988	32737.1	1041.26	6366.51	5815.58	5685.98	5639.78	5568.98	5511.58	5500.18	5452.58	5429.58	5376.98	5358.38	5350.38	5332.58	5262.18	5263.78	5237.98	5237.98
513.245	32883.3	1037.3	6437.63	5838.1	5756.7	5670.1	5636.1	5572.5	5601.5	5474.7	5446.7	5355.9	5384.1	5389.5	5332.1	5305.1	5352.1	5175.1	5175.1
513.502	33054.3	1039.4	6488.97	5922.84	5771.24	5648.04	5668.24	5615.24	5573.44	5540.04	5493.44	5479.84	5430.64	5399.84	5378.44	5338.04	5349.04	5324.04	5324.04
513.758	33082.4	1025.36	6586.83	5990.56	5812.56	5815.36	5695.16	5699.16	5649.56	5596.36	5587.16	5521.56	5509.56	5484.36	5459.56	5419.96	5419.36	5395.76	5395.76
514.015	33207.8	1040.3	6594.34	6020.14	5896.14	5841.94	5801.34	5689.74	5680.34	5613.14	5629.14	5602.14	5505.14	5522.94	5537.14	5483.54	5509.34	5471.74	5471.74
514.272	33461.4	1039.9	6733.23	6056.56	5931.76	5853.56	5866.16	5826.76	5765.16	5714.36	5653.16	5632.16	5633.96	5549.36	5551.56	5523.96	5511.36	5510.76	5510.76
514.528	33561.8	1045.56	6763.49	6151.42	6007.82	5966.22	5943.42	5856.02	5786.02	5752.02	5723.42	5725.62	5686.62	5594.42	5655.42	5606.42	5512.22	5547.22	5547.22
514.785	33859.7	1047.88	6844	6172.93	6079.93	5977.13	5982.13	5948.73	5889.93	5835.33	5786.53	5765.13	5730.93	5668.73	5692.73	5663.73	5674.33	5626.53	5626.53
515.041	34111.4	1042.38	6917.06	6253.06	6138.66	6129.46	5981.66	5987.86	5919.66	5911.86	5897.06	5808.46	5739.26	5757.96	5740.06	5695.06	5702.66	5641.66	5641.66
515.297	34327.8	1042.56	6971.49	6330.76	6218.96	6179.16	6072.56	6036.56	5930.26	5970.76	5886.16	5817.96	5801.56	5796.56	5738.76	5752.56	5757.36	5682.36	5682.36
515.554	34442.6	1039.56	7021.8	6385.2	6291.2	6185.2	6094.8	6038.2	5980	5963.4	5894	5876.6	5892.8	5862.4	5786	5837.8	5773.2	5717.8	5717.8
515.81	34792.2	1039.08	7130.1	6437.9	6357.3	6186.7	6162.1	6123.3	6064.3	6029.5	5967.1	5949.7	5921.1	5935.1	5901.3	5855.5	5902.1	5853.7	5853.7
516.066	34698.7	1041.04	7158.4	6504.6	6394.4	6213	6222.6	6131.4	6094.8	6047.8	5992.4	5974.6	5987	5937	5907	5884.2	5859.6	5806.4	5806.4
516.323	34987.7	1036.08	7242.95	6592.48	6448.48	6298.28	6260.28	6229.08	6169.08	6193.68	6137.68	6105.68	6090.88	6047.48	5996.68	6003.68	5967.68	5881.88	5881.88
516.579	34973.7	1030.02	7284.03	6622.9	6475.5	6419.1	6291.9	6234.1	6228.1	6179.1	6105.9	6124.3	6067.1	6086.1	5992.3	5973.9	5952.3	5906.3	5906.3
516.835	35258.9	1035.38	7339.95	6679.62	6543.02	6467.42	6356.22	6331.62	6268.02	6251.82	6217.82	6192.82	6162.02	6157.82	6048.02	6078.02	6079.42	6052.82	6052.82
517.091	35329.5	1045.02	7370.17	6749.9	6621.3	6424.7	6366.1	6308.9	6286.9	6310.3	6221.3	6148.1	6244.7	6096.5	6129.1	6064.3	6077.5	6110.7	6110.7
517.347	35771.2	1038.92	7487.83	6800.36	6690.56	6578.36	6517.36	6450.56	6375.56	6351.96	6300.76	6321.96	6296.16	6258.36	6156.56	6127.96	6118.56	6130.76	6130.76
517.603	35720.3	1032.2	7503.04	6852.04	6723.44	6573.84	6539.84	6544.64	6482.64	6432.04	6344.04	6333.84	6286.44	6299.64	6241.04	6262.24	6173.44	6159.44	6159.44
517.859	35962.5	1029.84	7585.15	6899.22	6743.82	6607.02	6550.62	6568.82	6515.02	6487.42	6405.82	6380.62	6307.82	6355.22	6309.22	6278.22	6276.42	6240.02	6240.02
518.114	36057.5	1040.68	7630.69	6966.62	6794.02	6750.02	6673.02	6619.82	6542.42	6492.82	6494.82	6449.42	6432.42	6395.62	6398.62	6365.42	6328.42	6340.42	6340.42
518.37	36232.6	1037	7689.25	7006.38	6945.98	6793.58	6741.78	6670.38	6557.78	6577.58	6615.78	6513.18	6515.98	6444.98	6403.38	6392.78	6390.18	6342.78	6342.78
518.626	36366.4	1026.52	7808.85	7028.18	6921.78	6847.78	6802.38	6691.98	6673.78	6598.18	6571.38	6605.58	6557.78	6537.78	6475.58	6424.58	6437.58	6407.38	6407.38
518.882	36447.7	1030.75	7858.35	7134.15	6981.35	6905.55	6866.55	6709.75	6720.95	6675.35	6644.35	6618.15	6495.35	6510.75	6499.75	6502.55	6472.15	6437.95	6437.95
519.137	36813.2	1036.22	7971.75	7229.68	7085.28	6958.48	6964.08	6871.48	6783.08	6779.28	6764.88	6724.68	6645.88	6625.68	6630.88	6551.68	6535.08	6549.28	6549.28
519.393	36782.6	1042.71	7991.1	7247.5	7073.3	6946.7	6982.5	6938.1	6839.9	6779.3	6689.9	6743.9	6740.5	6661.3	6674.3	6584.1	6556.3	6493.3	6493.3
519.648	37138.7	1051.08	8131.23	7322.7	7141.5	7042.5	6973.9	6985.9	6896.7	6895.1	6901.5	6824.5	6808.5	6727.3	6703.3	6717.9	6612.7	6630.1	6630.1
519.904	37291.7	1038.72	8125.43	7394.56	7210.96	7120.76	7096.56	7035.36	6963.16	6967.36	6962.96	6864.56	6899.36	6764.16	6837.96	6747.16	6736.56	6693.96	6693.96
520.159	37357.3	1038.84	8148.95	7446.82	7301.82	7149.22	7116.02	7080.82	6990.02	7005.22	6936.62	6856.62	6841.22	6814.02	6803.02	6739.42	6701.02	6726.42	6726.42
520.415	37532.2	1038.06	8200.48	7484.68	7299.08	7214.68	7126.48	7104.88	7059.28	7062.28	6955.68	6962.88	6881.48	6843.88	6903.88	6817.88	6776.28	6814.88	6814.88
520.67	37727.1	1038.18	8295.04	7623.24	7369.44	7285.64	7200.64	7169.04	7110.24	7073.64	7036.84	6987.24	7023.44	6976.24	6920.04	6900.64	6902.84	6807.64	6807.64
520.925	37913.3	1033.84	8393.51	7599.58	7431.38	7339.98	7263.58	7238.18	7160.78	7185.38	7162.18	7043.78	7075.78	7022.78	6975.78	6973.58	6935.18	6933.58	6933.58
521.18	37966.9	1036.24	8491.78	7700.78	7511.78	7412.98	7398.38	7357.98	7188.38	7229.78	7216.58	7079.78	7107.58	7118.18	7018.38	7031.18	6930.38	6963.38	6963.38
521.436	38013.2	1034.84	8523.67	7733.94	7575.94	7463.34	7355.74	7358.14	7276.14	7259.14	7195.94	7143.14	7097.14	7167.94	7014.54	7041.94	6995.74	7007.94	7007.94
521.691	38430.3	1039.62	8643.47	7828.6	7636.6	7572.6	7518.8	7380.4	7377.6	7365.6	7282.2	7234.8	7252	7225.2	7164.4	7150.8	7129.4	7089.6	7089.6
521.946	38336.7	1041.58	8693.27	7885.94	7705.34	7573.54	7501.94	7499.14	7428.54	7364.54	7338.54	7272.34	7247.34	7251.54	7209.14	7189.74	7122.54	7158.34	7158.34
522.201	38426.4	1041.68	8723.01	7878.54	7713.34	7659.14	7490.34	7401.94	7413.54	7482.74	7353.14	7325.74	7278.74	7330.34	7236.34	7207.94	7187.34	7118.14	7118.14
522.456	38655.9	1038.66	8779.82	7975.42	7816.62	7734.62	7590.22	7535.02	7529.42	7546.02	7454.02	7420.22	7373.82	7318.62	7283.22	7290.62	7230.22	7214.42	7214.42
522.71	38730.8	1039.32	8872.34	8046.14	7818.74	7779.74	7707.74	7624.34	7568.74	7565.54	7464.34	7479.34	7404.54	7349.94	7389.14	7387.54	7313.74	7285.14	7285.14
522.965	38862.8	1033.34	8963.83	8046.56	7872.76	7818.16	7740.56	7663.76	7654.56	7537.96	7555.36	7534.96	7442.36	7457.16	7427.36	7402.76	7349.36	7296.76	7296.76
523.22	38956.3	1039.42	9038.16	8201.76	7990.16	7857.56	7844.76	7720.96	7655.96	7655.96	7615.36	7577.36	7529.36	7536.56	7496.36	7451.96	7412.56	7456.56	7456.56
523.475	39185.2	1045.72	9099.04	8196.64	8054.44	7965.24	7910.64	7867.64	7795.24	7755.24	7679.64	7571.64	7579.64	7558.04	7540.24	7498.64	7422.04	7466.34	7466.34
523.729	39233.8	1042.96	9182.82	8270.82	8104.82	7968.42	7900.22	7819.42	7855.02	7767.02	7741.62	7701.82	7673.42	7613.42	7606.42	7583.22	7578.22	7545.22	7545.22
523.984	39289.1	1039.3	9248.55	8344.02	8165.02	8089.62	8020.82	7785.82	7866.82	7827.02	7788.82	7765.22	7699.22	7619.42	7730.22	7639.02	7634.22	7582.62	7582.62
524.239	39541.3	1041.3	9297.29	8431.42	8229.02	8119.62	8025.62	7990.82	7915.42	7870.42	7838.42	7729.22	7747.42	7748.02	7706.22	7680.82	7630.22	7577.02	7577.02
524.493	39733.1	1044.24	9376.29	8535.02	8306.82	8144.62	8092.82	8026.42	8034.82	7923.62	7904.22	7807.02	7840.42	7816.82	7783.02	7783.02	7764.62	7704.82	7704.82
524.748	39816.8	1038.76	9417.82	8593.42	8313.82	8207.62	8143.82	8125.62	8016.22	7980.62	7901.62	7917.42	7855.62	7871.02	7789.22	7760.82	7787.42	7730.42	7730.42
525.002	39788.8	1042.2	9506.73	8494.66	8362.06	8295.86	8215.26	8086.06	8100.26	8052.86	8014.06	7926.86	7953.66	7904.06	7850.66	7870.86	7851.46	7790.66	7790.66
525.256	40108.6	1044.82	9607.52	8701.72	8505.92	8454.12	8274.72	8226.52	8168.92	8127.32	8128.72	8071.52	8054.92	7932.92	7935.72	7885.72	7952.52	7857.52	7857.52
525.511	40198.2	1040.07	9599.88	8696.28	8513.88	8440.88	8311.28	8172.08	8156.48	8119.08	8155.48	8059.68	8044.48	8004.88	8016.28	7959.08	7974.08	7861.68	7861.68
525.765	40275.7	1041.08	9656.33	8787	8556	8463.4	8358	8342.6	8336.7	8187.6	8192.4	8155	8040.6	8044.6	8057.4	8023.2	7996.8	7940.6	7940.6
526.019	40589.4	1036.68	9809.3	8865.1	8682.9	8562.9	8446.7	8405.3	8364.1	8282.1	8250.9	8265.5	8153.3	8180.5	8114.9	8098.5	8051.1	8049.1	8049.1
526.273	40357.7	1037.9	9786.31	8852.98	8692.98	8547.38	8334.18	8386.78	8397.98	8303.58	8221.98	8202.38	8177.18	8090.78	8108.98	8045.98	8127.58	8036.98	8036.98
526.527	40559.7	1040.38	9832.52	8894.52	8696.72	8542.32	8504.72	8398.92	8413.12	8361.92	8285.72	8263.92	8176.92	8123.52	8171.72	8130.12	8098.92	8106.92	8106.92
526.781	40633.8	1042.98	9884.03	8943.96	8719.76	8628.56	8520.36	8451.36	8402.56	8379.76	8349.16	8332.16	8270.16	8209.36	8223.56	8167.76	8146.96	8138.36	8138.36
527.035	40725.8	1037.52	9928.07	9010.2	8777.8	8689.2	8521.2	8531	8442.4	8482.4	8366.4	8385	8281.2	8304.6	8193	8191.4	8196.8	8150	8150
527.289	40663.5	1037.32	9967.49	9061.16	8811.56	8749.76	8593.16	8646.56	8490.96	8463.76	8436.16	8360.96	8300.76	8294.16	8277.16	8249.16	8243.96	8222.16	8222.16
527.543	40828.7	1046.76	10161.5	9152.28	8898.08	8806.48	8713.88	8636.28	8530.08	8551.28	8499.28	8450.08	8384.48	8382.28	8350.68	8390.48	8299.48	8265.48	8265.48
527.797	41023.2	1036.8	10171.2	9209.26	8982.66	8823.66	8764.66	8723.86	8633.26	8629.06	8562.46	8470.46	8512.46	8461.86	8412.66	8330.46	8414.66	8333.66	8333.66
528.051	41046	1045.62	10219.4	9204.1	9064.3	8911.9	8763.1	8658.1	8623.7	8586.5	8554.5	8573.3	8528.7	8457.1	8424.9	8470.5	8337.1	8362.7	8362.7
528.305	41206.4	1046.16	10280.7	9300.6	9121.8	8944.6	8870.6	8762.2	8754.4	8699.2	8640.6	8600	8586	8544	8502	8510.6	8467.4	8446.4	8446.4
528.558	40659.7	1036.89	10212.7	9208.98	8921.98	8796.18	8819.78	8717.58	8678.98	8554.58	8597.18	8562.38	8509.18	8490.98	8421.78	8393.98	8374.38	8389.98	8389.98
528.812	41453.8	1037.58	10455.5	9394.37	9201.37	9115.57	9038.77	8906.17	8870.37	8782.77	8740.57	8761.97	8665.97	8644.77	8621.37	8634.97	8569.37	8613.97	8613.97
529.065	41689.8	1041.62	10545	9519.7	9253.9	9119.5	9123.5	8959.7	8951.3	8925.3	8930.3	8858.3	8789.1	8791.7	8735.9	8698.1	8682.9	8650.1	8650.1
529.319	41585.5	1044.16	10563.4	9473.42	9330.82	9124.42	9077.42	9009.42	8951.42	8902.82	8877.62	8868.62	8816.02	8792.62	8833.42	8699.62	8684.22	8671.02	8671.02
529.572	41826.3	1043.34	10698.6	9640.02	9436.82	9282.42	9246.42	9069.62	9092.02	9022.22	8928.42	8994.82	8919.02	8946.02	8843.42	8760.42	8807.62	8810.62	8810.62
529.826	41765.8	1042.4	10728.9	9605.32	9426.32	9335.12	9248.92	9133.32	9088.32	9003.32	9078.52	9013.32	8955.12	8905.32	8805.72	8895.52	8802.52	8754.32	8754.32
530.079	42033.5	1037.56	10832.8	9731.14	9587.54	9390.54	9268.54	9259.14	9254.74	9148.34	9169.54	9072.34	9014.34	8947.94	8970.94	8863.74	8893.74	8857.74	8857.74
530.333	41874.1	1040.42	10812.7	9735.48	9593.28	9378.88	9312.08	9267.28	9217.08	9151.68	9063.08	9020.88	8994.48	9026.78	8935.48	8928.08	8895.08	8898.28	8898.28
530.586	41994.8	1042.36	10911.2	9852.62	9622.42	9449.02	9372.82	9365.22	9290.02	9239.22	9192.62	9132.42	9077.82	9040.02	8981.82	8985.22	9045.82	9018.02	9018.02
530.839	42141.6	1039.09	11032.5	10000.5	9695.52	9609.32	9520.12	9431.12	9385.92	9351.12	9296.32	9231.72	9159.72	9166.52	9094.32	9086.32	9085.72	9077.32	9077.32
531.092	42277.1	1032.38	11114.1	9927.94	9769.24	9656.54	9536.34	9487.94	9499.34	9391.54	9344.74	9248.14	9287.54	9249.34	9224.94	9100.54	9168.14	9094.34	9094.34
531.345	41647.9	1045.18	11006.9	9856.28	9689.28	9509.88	9431.48	9436.08	9298.08	9318.28	9245.28	9253.88	9147.48	9157.68	9065.48	9064.68	9051.68	9070.08	9070.08
531.598	42383	1052.62	11293.9	10160.3	9861.5	9713.1	9613.9	9577.1	9600.9	9480.9	9426.1	9378.5	9336.7	9284.1	9273.7	9260.1	9238.7	9171.7	9171.7
531.851	42361.1	1042.6	11310.3	10169.9	9908.5	9752.5	9671.7	9615.3	9646.1	9537.9	9500.1	9416.1	9325.3	9346.1	9329.1	9293.5	9232.5	9226.9	9226.9
532.104	42418.8	1046.34	11366.9	10213.6	9937	9790.6	9711	9670.2	9638.6	9561	9479.8	9476.6	9466	9405	9443.6	9415.8	9340.6	9293.2	9293.2
532.357	42388.6	1038.4	11387.2	10360.8	9967.6	9866.2	9827.8	9737.6	9620	9618	9563.8	9540.6	9478.4	9461.4	9433.8	9453.8	9373.2	9331.8	9331.8
532.61	42521.7	1036.46	11525.2	10317.3	10102.1	9913.12	9890.52	9792.72	9716.72	9683.72	9570.52	9529.72	9534.32	9517.72	9524.52	9411.12	9495.12	9454.32	9454.32
532.863	42514.8	1043.5	11559.2	10400.6	10150.2	9931.38	9874.58	9862.38	9830.58	9727.18	9644.78	9607.78	9582.98	9641.98	9531.18	9503.18	9451.18	9455.38	9455.38
533.115	42680.2	1043.62	11664.6	10478.3	10235.1	10085.3	10006.9	9941.32	9874.72	9836.72	9815.52	9767.32	9704.12	9644.52	9603.12	9579.72	9585.92	9556.12	9556.12
533.368	42750.2	1042	11734.2	10504.4	10295.4	10158.2	10028.2	9940.16	9924.76	9922.56	9862.36	9780.56	9701.96	9735.56	9671.96	9631.96	9652.76	9601.56	9601.56
533.621	42800.9	1031.88	11806	10623.8	10383.8	10227.8	10092.4	10016.4	10018.8	10054	9949.84	9837.44	9827.84	9796.64	9734.44	9709.24	9748.64	9700.84	9700.84
533.873	42888.8	1036.98	11879	10723.8	10482.4	10263.6	10253.4	10181	10124.4	10063.2	9984.84	9949.84	9852.44	9858.24	9799.64	9802.24	9816.04	9722.04	9722.04
534.126	42862.9	1043.7	11913.3	10756.1	10559.1	10363.5	10286.9	10136.7	10101.5	10058.1	10041.9	10022.7	9950.06	9890.66	9901.26	9788.86	9923.66	9689.86	9689.86
534.378	43062.9	1046.6	12021.4	10769.6	10522.2	10344.4	10278.4	10211.6	10113.6	10123.4	10113.6	10112.2	9959.42	10030.8	10010.2	9927.62	9975.02	9818.62	9818.62
534.631	43087.4	1031.81	12094.5	10910.6	10592	10528.4	10332.4	10264.4	10322.6	10200.2	10072.6	10148.8	10023.4	10085.8	9984.1	10041.6	9982.4	9932.2	9932.2
534.883	43124.3	1040.84	12151.7	10927.5	10641.1	10605.5	10509.7	10360.9	10353.9	10182.1	10193.3	10106.9	10147.5	10008.7	10044.5	10022.9	10041.1	9922.1	9922.1
535.135	43267.9	1044.12	12184.8	10969.8	10799.4	10609.2	10549.8	10373.2	10372.8	10282	10257.2	10254	10140.8	10153.2	10100.2	10092.2	10033.4	9969	9969
535.388	43214.9	1037.04	12249.6	11034.5	10755.9	10647.9	10492.5	10348.3	10400.5	10311.7	10269.3	10221.3	10216.9	10130.9	10151.3	10151.3	10071.9	10103.9	10103.9
535.64	43320.5	1037.14	12370.1	11009.1	10799.3	10632.3	10598.3	10480.3	10414.3	10361.9	10292.1	10265.3	10302.9	10187.3	10182.5	10144.5	10188.7	10093.3	10093.3
535.892	43425.3	1042.16	12444.2	11152.1	10872.5	10769.7	10617.1	10574.5	10543.1	10407.9	10462.7	10385.5	10360.9	10334.3	10269.9	10288.1	10254.3	10247.3	10247.3
536.144	43721.3	1034.08	12547	11286.4	11033	10898.2	10748.4	10705.6	10644.4	10613.2	10590.8	10457.2	10403.6	10417.2	10367.4	10384.2	10379.8	10360	10360
536.396	43855.5	1039.72	12619.2	11353	11127.6	10942.4	10858.8	10771.8	10659.6	10587.4	10649.2	10523.2	10548.6	10487	10396.6	10458	10408.4	10355.2	10355.2
536.648	43923.8	1035.1	12730.8	11492.5	11193.5	10974.1	10879.5	10791.5	10774.7	10677.1	10678.7	10633.7	10565.5	10522.9	10492.5	10500.3	10468.5	10431.9	10431.9
536.9	43915.8	1040.94	12775.8	11507.2	11173.8	11004.4	10992.8	10852.6	10836.8	10772.4	10711.4	10671.8	10615.8	10563.8	10580.2	10538.6	10493.4	10489.4	10489.4
537.152	44201.7	1037.5	12880.5	11582.5	11251.5	11160.9	11099.5	10971.7	10854.7	10713.3	10637.5	10693.7	10709.9	10629.1	10662.7	10577.9	10575.1	10619.3	10619.3
537.404	44134.6	1040.82	12881.5	11649.7	11303.7	11146.9	11084.1	10976.1	10962.5	10850.3	10802.7	10763.1	10688.3	10689.5	10719.9	10563.3	10659.7	10559.5	10559.5
537.655	44281.6	1039.82	12939.2	11711.5	11400.3	11221.7	11167.9	11048.1	10999.3	10984.1	10973.1	10900.1	10831.1	10661.5	10743.1	10691.7	10684.5	10657.5	10657.5
537.907	44547.1	1031.34	13138.6	11818.4	11503.8	11351.4	11291.8	11195.4	11157.6	11046	10996.2	10957.8	10885.2	10902	10921.2	10786.6	10835.4	10758	10758
538.159	44627.5	1039.68	13219.1	11914.7	11609.3	11366.9	11338.1	11208.1	11199.5	11177.9	11063.9	10951.3	11001.5	10952.1	10960.5	10902.5	10813.3	10826.9	10826.9
538.411	44663.3	1041.44	13276.7	11926	11642.6	11495.6	11408.6	11304.6	11251.2	11183.2	11114.8	10978.2	11069.8	11031.8	10948.6	10851.2	10900.2	10867	10867
538.662	44760.4	1033.8	13283.4	11938.7	11681.3	11506.3	11408.7	11323.3	11181.9	11231.5	11265.1	11079.5	11010.3	11075.3	10965.7	10994.5	10942.1	10976.1	10976.1
538.914	45054.8	1046.64	13475.6	12174.7	11788.7	11692.5	11558.9	11390.5	11344.1	11305.1	11298.5	11182.1	11194.9	11139	11153.1	11064.3	11096.3	11082.7	11082.7
539.165	44868.8	1041.34	13516.1	12172	11806.6	11706.2	11649.2	11504.6	11371	11389.4	11310	11246.8	11248.8	11184.4	11209	11101.4	11101.4	11050	11050
539.416	45150.2	1039.78	13596	12217.9	11915.9	11740.7	11704.9	11658.7	11544.9	11485.1	11377.5	11348.5	11329.5	11324.7	11299.3	11215.9	11161.3	11137.3	11137.3
539.668	45386.8	1031.22	13756.1	12385.7	12088.9	11928.7	11778.1	11697.3	11670.5	11626.5	11557.1	11532	11447.5	11430.9	11435.5	11270.7	11324.9	11228.7	11228.7
539.919	45233.8	1036.68	13805.4	12317	12064	11851.4	11737	11668	11577.2	11609	11540	11439	11449.2	11422.8	11313.6	11331.2	11365.2	11175	11175
540.17	45387.8	1036.92	13924.9	12483.5	12152.3	11952.1	11882.5	11734.1	11747.5	11660.1	11627.9	11550.1	11512.7	11516.5	11466.1	11344.1	11349.7	11325.5	11325.5
540.422	45478.9	1041.64	13930.9	12470.2	12257.2	12115	11880	11883	11787.8	11681.8	11708.6	11701.8	11615.4	11517.8	11540.4	11517	11459.8	11466.8	11466.8
540.673	45390.8	1032.56	13926.8	12517.3	12262.1	12079.9	11924.1	11855.3	11766.7	11784.1	11634.1	11605.3	11658.1	11557.7	11523.3	11497.9	11449.7	11355.3	11355.3
540.924	45646.3	1038.6	14139.6	12714.7	12396.7	12152.5	12050.7	11984.5	11864.1	11871.5	11761.7	11735.1	11792.1	11698.1	11695.5	11621.3	11597.9	11549.7	11549.7
541.175	45830.7	1033.66	14224.6	12817.5	12423.3	12352.5	12168.1	12106.1	12009.9	11915.5	11886.5	11941.7	11852.3	11768.5	11783.3	11762.9	11648.9	11602.5	11602.5
541.426	45898.4	1035.88	14337.5	12900.3	12483.4	12316	12234.8	12187.2	12007.4	11992.6	11995.8	11949	11939.2	11850.6	11909	11785	11797.4	11685	11685
541.677	46067.6	1042.08	14397.6	12915.7	12637.1	12424.5	12234.5	12195.5	12091.3	12097.5	11987.7	12006.9	11929.5	11850.5	11881.3	11868.3	11816.7	11749.1	11749.1
541.928	46112.1	1033.86	14459.4	13013.9	12591.5	12504.3	12313.3	12294.5	12198.9	12084.7	12071.5	12077.3	12076.5	12009.1	11925.9	12004.1	11880.1	11912.5	11912.5
542.179	45996.1	1040.92	14483.9	13056.1	12673.1	12500.1	12400.1	12313.3	12214.1	12077.3	12093.7	12028.9	12062.9	11926.9	11960.9	11924.7	11915.3	11878.5	11878.5
542.429	46287.9	1042.12	14605	13130.5	12758.1	12561.9	12499.5	12476.7	12338.1	12243.5	12208.1	12174.7	12069.1	12118.5	12027.9	12059.5	12031.1	12082.3	12082.3
542.68	46432.8	1039.42	14704.9	13191.6	12868.2	12632.4	12639.8	12492	12488.8	12313	12337.8	12193.8	12242.6	12183	12159.8	12176.4	12160.4	12100.4	12100.4
542.931	46710.3	1041.94	14877.7	13339.7	12997.3	12776.1	12651.9	12547.1	12490.9	12479.9	12380.1	12395.1	12357.7	12310.1	12229.1	12185.5	12216.3	12187.1	12187.1
543.181	46918.8	1039.54	14993.7	13488.5	13069.3	12975.3	12777.7	12696.3	12570.3	12504.9	12528.1	12406.5	12402.5	12414.5	12307.7	12302.3	12330.9	12323.9	12323.9
543.432	46821.7	1041.52	15030.7	13449.2	13083	12981.2	12795.8	12780	12659.8	12633.6	12545.8	12563.4	12473.6	12415.2	12337.8	12443.4	12370	12203.8	12203.8
543.682	47045.7	1046.76	15176.5	13574.5	13287.1	13065.3	13011.3	12841.9	12795.9	12786.3	12655.1	12693.5	12691.5	12493.9	12493.5	12443.3	12505.3	12392.3	12392.3
543.933	46995.2	1034.8	15172.1	13605.9	13265.7	13154.5	13044.5	12921.1	12823.9	12777.5	12707.7	12640.5	12621.5	12611.7	12545.7	12530.9	12520.5	12403.9	12403.9
544.183	47266.7	1039.98	15299.3	13713.5	13419.1	13214.3	13093.5	13026.1	12934.1	12882.5	12799.1	12773.7	12770.3	12691.9	12701.7	12660.5	12621.9	12565.3	12565.3
544.434	47597.5	1035.81	15492.7	13915.3	13464.9	13330.1	13297.1	13075.5	13072.1	12960.3	12922.9	12898.5	12848.7	12745.9	12811.3	12783.1	12716.1	12663.3	12663.3
544.684	47749.9	1044.15	15629.3	13905.3	13640.1	13414.5	13339.3	13196.5	13143.5	13061.9	13016.9	12935.3	12972.7	12956.7	12851.1	12872.3	12886.3	12804.5	12804.5
544.934	47742.2	1043.6	15599.5	13970	13619.6	13471.2	13344.6	13277.6	13161.2	13129.4	13138.6	12974	12986.8	12949.6	12905.2	12964.6	12900.2	12752	12752
545.184	47882.3	1042.24	15688	14118.6	13788.2	13529.4	13426.2	13296.6	13309.4	13130.6	13086.2	13064.2	13073	12961.2	12950.2	12889.8	12835.4	12865.4	12865.4
545.435	48218.3	1043.44	15849	14180.4	13852	13655	13587.2	13384.2	13412.6	13296.6	13244	13290.2	13166.4	13194.2	13024.8	12995.8	13085	12976.4	12976.4
545.685	48026.7	1036.22	15830.4	14263.7	13849.5	13743.3	13600.1	13497.5	13425.7	13361.3	13345.9	13269.3	13225.5	13170.1	13093.1	13217.9	13100.5	12981.3	12981.3
545.935	48159.4	1035.4	15950.1	14362.2	13919.6	13715.2	13688.2	13527.2	13507.2	13408.6	13371.6	13310.9	13335.4	13268.2	13242	13172.6	13183.4	13112.2	13112.2
546.185	48525.2	1044.18	16172	14596.4	14221.2	13958.4	13826.8	13761.6	13730.4	13652.4	13550	13437.2	13439.2	13432.2	13361.6	13372.4	13319	13345	13345
546.435	48429	1044.08	16143	14542.5	14176.9	13978.7	13833.7	13732.1	13693.1	13571.1	13615.5	13469.7	13433.9	13366.3	13368.9	13312.1	13359.1	13303.3	13303.3
546.684	48898.1	1037.56	16363.1	14552.9	14303.7	14116.5	13979.1	13862.3	13777.3	13720.7	13719.1	13604.9	13596.9	13528.3	13534.3	13516.3	13421.7	13405.7	13405.7
546.934	48624.6	1035.2	16281.8	14724.3	14337.5	14139.9	14036.5	13884.3	13818.5	13723.1	13718.3	13638.5	13588.1	13553.5	13525.9	13609.5	13441.7	13475.5	13475.5
547.184	48798.5	1035.98	16444.2	14859.8	14404.2	14221.2	14093	14039.6	13974.6	13852.4	13846.4	13756.2	13832.4	13735.2	13695.2	13662.8	13626.6	13562	13562
547.434	48973.1	1044.76	16510.2	14934.4	14492.8	14396.4	14233.2	14146.6	14041.6	14046.6	13951.8	13857.4	13890.6	13875.2	13756	13734.2	13740.8	13729	13729
547.683	49233.5	1039.16	16714.3	15043.7	14641.5	14484.1	14376.1	14269.9	14243.3	14128.3	14084.9	14014.5	14005.7	14003.7	13927.1	13907.6	13842.7	13853.4	13853.4
547.933	49356.4	1039.12	16792.7	15150.4	14854.2	14535.6	14484	14365.2	14251.8	14201.2	14178.6	14099.4	14032.6	14030.8	14061	13928.4	13926.4	13889.6	13889.6
548.183	49465.2	1039.56	16974.5	15247.1	14876.7	14636.1	14605.1	14394.3	14406.6	14284.7	14218.9	14247.7	14157.3	14176.1	14127.9	14018.7	14010.9	14019.7	14019.7
548.432	49185.4	1032.52	16960.2	15255.9	14895.7	14682.5	14486.3	14383.7	14436.1	14370.7	14250.7	14193.9	14197.3	14132.9	14075.3	14138.7	14031.5	13941.1	13941.1
548.682	49482.9	1028.48	17091.8	15442.4	15021.4	14795	14617.8	14687.8	14502.4	14443.6	14504.4	14331.8	14372.6	14292.6	14231.4	14177.8	14118.8	14128.2	14128.2
548.931	49576.2	1039.05	17184.5	15488.1	15294.3	14807.9	14815.7	14703.7	14685.5	14506.3	14518.3	14440.3	14393.3	14347.3	14275.1	14336.1	14308.3	14326.3	14326.3
549.18	49783.5	1044.82	17319	15632.2	15256.4	15024	14975.6	14882.2	14697.8	14716.4	14697.8	14482.2	14511.2	14502.4	14433.6	14435.4	14340.5	14354.2	14354.2
549.43	49766.3	1039.66	17344.3	15724.6	15319.6	15152	14886.8	14860	14793.2	14746.4	14717.8	14586.2	14575.4	14527.6	14500	14442.6	14334.4	14437.6	14437.6
549.679	49767.1	1036.86	17442.3	15775.6	15290.6	15183.2	15044.4	15032.4	14845.4	14837.4	14701.2	14642.6	14594.2	14660.8	14673.8	14584.1	14532.2	14530.2	14530.2
549.928	49776.4	1042.92	17558.1	15840.7	15441.3	15259.7	15091.1	15048.9	15114.9	14902.1	14818.9	14786.1	14803.3	14678.1	14669.3	14691.9	14632.1	14537.5	14537.5
550.177	50028.8	1045.66	17719.1	15972.7	15619.5	15378.9	15254.5	15126.5	15065.7	15007.7	15015.1	14941.5	14837.1	14800.3	14780.9	14780.6	14846.9	14647.9	14647.9
550.426	50100.8	1047.3	17802	16132.8	15793.4	15496	15368.4	15309	15192.7	15075	15089.2	15016.4	14980.8	14907.6	14869	14912.4	14801.4	14815.8	14815.8
550.675	50124.6	1040.06	17808.3	16068.8	15743	15603.8	15431.6	15328.4	15217	15166	15127.6	15100.4	15004.8	14954.2	14902.4	14953.2	14818.2	14894.4	14894.4
550.924	50281.5	1038.34	17977.7	16276.1	15885.7	15656.5	15501.5	15434.3	15350.3	15260.9	15175.4	15281.1	15111.5	15137.9	15054.5	15043.3	14990.3	15004.3	15004.3
551.173	50554.6	1041.38	18113.3	16417.6	16020.4	15867.2	15674.2	15564	15609	15437	15345	15238	15250.2	15160	15188.4	15198.2	15176.2	15115.6	15115.6
551.422	50346.9	1034.68	18075.4	16396	15920.6	15764.6	15526.6	15544	15452.8	15370.4	15258.8	15132.4	15253.8	15196.4	15151.2	15131.6	15067.4	15039.2	15039.2
551.671	50670.6	1039.84	18313.4	16525.6	16228.2	15934	15792.8	15701.2	15609.2	15571.4	15479.2	15339.8	15421	15268.6	15336.8	15251.6	15280.4	15240.4	15240.4
551.92	50526.8	1034.2	18310.7	16597.8	16201.2	16033.2	15886.2	15797.4	15676.8	15609.8	15496.6	15437.4	15474.6	15384	15304	15313.8	15312.4	15212.2	15212.2
552.169	50904.3	1040.1	18484	16782.5	16393.1	16136.5	15963.1	15841.9	15787.7	15773.7	15712.1	15633.5	15581.9	15550.9	15493.1	15397.9	15439.7	15362.3	15362.3
552.417	50799.2	1041.86	18570.1	16800.4	16399	16168.8	15997.2	15977	15962	15683.6	15682.6	15625.8	15544.4	15629.2	15512	15440	15466.2	15395	15395
552.666	51135	1038.76	18675	16813.3	16502.3	16203.1	16157.9	16011.1	16038.7	15862.1	15868.3	15718.3	15673.7	15706.5	15624.9	15670.9	15487.7	15508.3	15508.3
552.914	51442.5	1043.54	18805.2	16961.1	16512.9	16360.1	16227.9	16149.1	16102.3	15980.9	15883.7	15787.1	15801.9	15741.3	15694.3	15744.7	15652.5	15566.3	15566.3
553.163	51349.3	1043.28	18830.8	17056.1	16701.1	16409.1	16303.3	16175	16072.3	16048.3	15935.3	15923.7	15868.3	15806.7	15772.1	15699.9	15738.1	15667.9	15667.9
553.411	51370.7	1040.8	18870.7	17193.9	16746.2	16468.3	16323.7	16233.3	16152.9	16081.5	16019.3	15995.3	15936.1	15976.9	15842.1	15912.9	15723.9	15796.1	15796.1
553.66	51601	1042.62	18968.5	17154.5	16796.7	16487.4	16442.3	16186.9	16217.5	16136.9	16142.3	15962.3	16038.5	15950.7	15994.5	15980.5	15829.1	15757.1	15757.1
553.908	51882.1	1031.6	19138.3	17422.2	16879.2	16669.7	16528	16384.6	16363.4	16335	16250.6	16189.6	16202.4	16195	16053.6	16088.6	16105.4	15961	15961
554.156	52107.1	1037.42	19296.2	17478.2	17090	16865.4	16716	16591.4	16464.2	16405.2	16450.2	16304	16279.4	16351.6	16233.8	16227	16162	16184.6	16184.6
554.405	52066.8	1038.62	19261.5	17573.2	17186.4	16887.2	16815.8	16700.4	16581.2	16512.6	16411.8	16351.6	16306.8	16267.2	16202.1	16240.8	16151.6	16090.6	16090.6
554.653	52266.9	1035.05	19427.5	17677.6	17164	17006.2	16894.8	16698.4	16702.6	16578.2	16521.6	16523.4	16406.6	16393	16310.8	16440.6	16350	16225.6	16225.6
554.901	52384.5	1033.86	19524.3	17765.6	17261.6	17118	16916.2	16826	16719.5	16564.6	16562.2	16572.2	16483.8	16492.6	16426.4	16477	16381.6	16356.6	16356.6
555.149	52407.6	1031.18	19544.8	17822.1	17303.3	17197.1	16930.3	16974.5	16878.1	16813.1	16733.1	16650.1	16658.9	16586.1	16512.5	16439.1	16451.7	16367.5	16367.5
555.397	52738.8	1040.98	19708.9	17996.2	17497.2	17293.8	17170.8	16972.4	16985	16845.6	16833.2	16773.2	16723.2	16721.4	16604	16564.4	16575.8	16528	16528
555.645	52808.6	1045.38	19770.5	18045.4	17562.6	17329.4	17218.4	17197.2	17006.2	16911.8	16810.2	16942.8	16776	16635.6	16709.4	16671.6	16625.2	16505.2	16505.2
555.893	52829.8	1046	19800.8	18070	17611.5	17392.6	17299.6	17186	17036.2	16955.4	16915.4	16900.8	16797.6	16703.6	16782.4	16728	16572.8	16528	16528
556.141	53030.2	1040.44	19936.8	18222.7	17771.3	17643.7	17336.5	17240.5	17122.9	17211.7	16995.9	17011.1	16933.1	16846.2	16877.3	16865.9	16868.1	16722.5	16722.5
556.389	53422.7	1035.12	20238	18514.4	18018.4	17771.8	17520.8	17488	17349.4	17289.6	17252.6	17233	17248	17130.6	17140.4	17006	17029.4	16928.2	16928.2
556.637	53526.9	1041.38	20305.4	18548.3	18087.1	17874.1	17657.2	17521.7	17439.9	17346.9	17383.1	17301.1	17221	17213.4	17139.3	17103	17128.9	17039.8	17039.8
556.884	53645.4	1032.1	20401	18573	18119	17938.4	17658.4	17586.6	17531.7	17416.4	17374.4	17288.7	17210.7	17152.4	17103.8	17184.8	17143.4	17040.6	17040.6
557.132	53675.9	1038.4	20407.4	18556.1	18100.7	17853.3	17702.1	17620.7	17506.7	17428.4	17447.7	17300.1	17325.1	17186.7	17217.3	17147.9	17067.6	17152.5	17152.5
557.38	53881	1042.04	20454.7	18681.6	18310.6	17962.4	17808.7	17733.4	17625.8	17481.7	17502	17453.4	17328	17453.4	17338.2	17318.8	17206.4	17160	17160
557.627	54001.3	1043.1	20546.7	18821.4	18334.3	18099.3	17985.2	17837.8	17743	17634.2	17560.2	17526.8	17501.4	17497	17325.4	17317.6	17360	17189.6	17189.6
557.875	54198.5	1039.24	20667.2	18901.1	18415.9	18230.5	18060.9	17976.7	17878.9	17840.1	17808.1	17730.7	17638.7	17593.1	17593.1	17553.9	17524.5	17354.1	17354.1
558.122	54095.7	1036.08	20764.6	19020.4	18522.4	18349.4	18152.2	17974.2	17973.4	17825	17740.4	17682	17704	17615.1	17619.6	17536.2	17643.1	17542.4	17542.4
558.369	54377.5	1037.14	20955.8	19155.4	18678.6	18493.6	18306.6	18156.2	18177.7	18152.6	17975.2	17874.8	17837.2	17773.4	17767	17699.6	17622.6	17727.4	17727.4
558.617	54471.6	1031.1	21070.7	19226.3	18752.7	18600.3	18357.5	18315.5	18278.3	18102.9	18019.3	17969.7	17875.3	18046.1	17839.9	17788.9	17740.7	17680.9	17680.9
558.864	54373.8	1043.7	21029.3	19332.7	18860.3	18655.7	18518.4	18395.5	18286.9	18197.5	18173.1	18074.5	17944.1	17911.9	17901.1	17775.3	17860.1	17774.7	17774.7
559.111	54874.1	1039.28	21230.4	19534	19082.2	18816.4	18710.2	18470.1	18428.4	18445.2	18244.4	18126	18212	18148	18092.7	18075	18040.6	18015.4	18015.4
559.359	54609.2	1044.66	21226.2	19496.9	18995.5	18761.6	18539.9	18522.7	18445.7	18310.3	18246.8	18269.9	18087.7	18201.3	18108.1	18086.3	18035.3	17971.9	17971.9
559.606	55024	1034.68	21462.6	19625.9	19243.9	18997.9	18745.5	18696.7	18597.5	18525.2	18426.1	18487.7	18282.1	18245.3	18236.5	18231.7	18206.5	18214.7	18214.7
559.853	55038.9	1043.8	21557.7	19691.1	19246.1	19040.7	18877.7	18686.7	18601.1	18542.1	18518.9	18432.6	18322.9	18297.9	18323.7	18309.5	18235	18154.5	18154.5
560.1	55227.6	1035.41	21627	19712.2	19274.3	19146.9	18953.3	18769.1	18635.7	18659.7	18592.3	18557.9	18433.5	18440.1	18388.9	18397.3	18286.1	18347.9	18347.9
560.347	55110	1041.98	21587.2	19861.4	19333.9	19138.7	18959.1	18823.7	18749.4	18622.1	18549.2	18468.7	18480.9	18423.5	18461.5	18380.3	18387.9	18367.3	18367.3
560.594	55136.9	1041.76	21685	19772.2	19490.8	19162.2	18998.9	18940	18845.2	18735.4	18714.5	18618.4	18609.7	18538	18556.2	18355.2	18466.2	18415	18415
560.841	55478.3	1043.5	21822.8	20005	19550	19410.7	19164.1	19113.9	18901.1	18872.4	18720.5	18791.7	18772.3	18649.5	18691.5	18551.7	18572.1	18504.4	18504.4
561.087	55336.6	1042.1	21911.4	20044.3	19614.8	19420.1	19241.9	19133.9	19005.9	18908.1	18865	18781.1	18661.3	18741.3	18740.5	18607.5	18631.5	18559.5	18559.5
561.334	55515.5	1042.08	22092	20212.3	19710.9	19503.3	19279.9	19227.3	19131.3	18985.9	18959.9	18918.5	18874.5	18881.9	18868.3	18728.9	18705.3	18725.8	18725.8
561.581	55529	1043.3	22095.8	20263.5	19803.6	19518.8	19470.9	19210.1	19290.1	19203	19055	19039.7	18976.1	18962.1	18919.4	18831.3	18797.5	18681	18681
561.828	55842.5	1040.72	22271	20495.5	19970	19663.4	19501.4	19446	19326	19229.6	19157.8	19148.8	19051.2	19042.4	18910.4	18986.2	18985.6	18907.8	18907.8
562.074	55594.1	1041.42	22167.4	20433.7	19898.9	19653.9	19486.7	19381.3	19345.1	19218.6	19101.1	19128.1	19014.3	19044.5	18984.7	18934.7	18873.1	18926.2	18926.2
562.321	56102.1	1048.18	22438.2	20652.9	20152.9	19906.1	19822.6	19738.8	19533.5	19501.3	19464.3	19388.1	19214.5	19283.7	19295.3	19190.9	19141	19047.1	19047.1
562.567	55966.7	1041.86	22438.1	20628.4	20160.4	19930.6	19700.8	19640.2	19503.8	19460.8	19426.4	19294	19197.8	19229.6	19128.7	19214.8	19135.6	19062.6	19062.6
562.814	56271.8	1040	22570.4	20868.1	20269.5	20195.7	19902	19902.1	19676.4	19687.1	19579.7	19564.6	19425	19519.1	19466.1	19363.9	19403.7	19298.5	19298.5
563.06	56163.6	1035.38	22701.9	20918.8	20427	20110.6	19999.5	19936.4	19742	19741	19700.2	19453.2	19607.1	19505.8	19451.8	19345.8	19385	19347.4	19347.4
563.306	55984.5	1037.15	22670.3	20850.1	20436.5	20039.1	19959.1	19869.2	19861.7	19668.3	19645.5	19591.5	19561.9	19453.5	19397.1	19482.7	19353.1	19320.7	19320.7
563.553	56058.1	1037.24	22666.2	20843.8	20434.8	20114.5	20026	19952.4	19690.2	19770.8	19635	19676.4	19544	19546	19551.7	19404	19383.3	19382.7	19382.7
563.799	56205.2	1035.66	22767.2	20950.8	20510.6	20328.8	20174.6	19993.7	19869.8	19841	19787.5	19798.1	19618.5	19675.3	19498.4	19534	19491.6	19502.2	19502.2
564.045	56253.5	1039.26	22866.4	21140.9	20633.4	20426.5	20180.9	20128.1	20040.3	19943.9	19875.5	19779.9	19736.5	19705.5	19651.5	19532.7	19553.3	19573.1	19573.1
564.291	56549.3	1038.28	23079.1	21279.5	20848.9	20500.3	20362.1	20261.7	20223.7	20119.7	20113.2	19991.5	20015.1	19813.5	19794.5	19832.5	19764.6	19693.9	19693.9
564.537	56417.4	1032.88	23090.3	21355.3	20925.9	20639.5	20425.9	20502.3	20321.1	20239.1	20083.3	20127.3	20036.9	19932.1	19880.3	19896.3	19844.3	19928.9	19928.9
564.783	56436.5	1041.06	23240.2	21395.5	21048.9	20741.5	20621	20548.1	20348.1	20193.8	20132.7	20118.3	20084.1	20093.2	19974.3	19980.1	19866	19968.1	19968.1
565.029	56610.3	1048.44	23386.6	21509.4	21072	20762.8	20744.4	20492.1	20356.4	20305.8	20339.8	20229.8	20175.8	20148.8	20157	20071	19999.2	19918.1	19918.1
565.275	56568.9	1034	23348.9	21469.3	21016.2	20897.5	20634.7	20569.9	20502.5	20392.9	20380.9	20183.2	20133.1	20124.1	20143.1	20111.9	20055.4	20002.3	20002.3
565.521	56565	1035.36	23391.8	21612.6	21142.8	20842.4	20717.4	20589.6	20496.8	20372.5	20418.4	20363.8	20263.4	20250.3	20199.5	20107.9	20055.6	20111.1	20111.1
565.767	56627.4	1029.14	23435.5	21632.4	21157.8	21044	20738.4	20649.2	20539	20455.9	20386.6	20303.2	20262.2	20232.7	20195.4	20186	20160.6	20183.6	20183.6
566.013	56609.7	1039.22	23456.2	21592.6	21233.5	20946.8	20807.2	20581.8	20477.8	20545.6	20451	20463.4	20345.8	20258	20228.3	20203.9	20229.7	20206.2	20206.2
566.258	56757.4	1036.52	23467.2	21698.9	21283.3	21098.7	20899.8	20727.8	20578.5	20643.9	20593.5	20441.9	20437.9	20366.7	20421.3	20216.1	20326.1	20262.5	20262.5
566.504	56844.5	1040.34	23665.6	21963.6	21383.2	21191.2	20931.2	20954.1	20850.7	20687.8	20642.8	20625	20554.7	20536.3	20434	20383.4	20437.6	20375.6	20375.6
566.75	56688.4	1040.2	23576	21848.9	21374.9	21194.3	20986.6	20823.3	20784.3	20657.9	20623.6	20471.3	20563.3	20542.9	20392.1	20426.3	20320.9	20358.5	20358.5
566.995	57115.8	1039.9	23781.8	21940.5	21569.7	21255.6	21151.2	20980.2	20861.9	20846.7	20686	20643.8	20672	20633.4	20569.6	20572.2	20415.7	20489	20489
567.241	56649.3	1036.56	23598.5	21841.9	21395.9	21141.7	21017.6	20822.7	20824.8	20681.5	20657.4	20652.6	20559.6	20620.2	20477.2	20453.8	20479.1	20448.6	20448.6
567.486	56945.4	1031	23784.2	22052.5	21616.6	21375.5	21212.1	21148.5	21044.6	20980.3	20887.8	20731.5	20795.5	20669.3	20669.7	20635.1	20660.9	20627.5	20627.5
567.732	56829.9	1035.72	23748.7	22013	21518	21319.1	21195	21119.8	20981.8	20919.8	20795.3	20705.5	20666	20586	20705.5	20648	20588.1	20643.6	20643.6
567.977	56753.5	1038.84	23751.1	21857.6	21516	21324.2	21183.8	20988.4	21092.9	20828.4	20828	20751.1	20768.8	20801.8	20695.4	20759.4	20556.2	20553.2	20553.2
568.222	56950.2	1046.58	23959.1	22225.2	21643	21467.4	21330.2	21192.8	21096.6	21076	21100.8	20971.8	20858.8	20823.6	20835	20728.8	20821.2	20719.6	20719.6
568.467	57048.3	1043.02	23991.4	22231.7	21835.7	21536.6	21344.2	21326.7	21185.7	21139.8	21207.7	20913.9	20930.3	20962.5	20915.5	20983.3	20852.9	20925.1	20925.1
568.713	56923.2	1044.04	23932.7	22170.9	21852.3	21635.2	21408.4	21282.4	21185	21215.9	21088.6	21042.8	21104.8	21011.4	20962.8	20891.8	20882.2	20777.2	20777.2
568.958	56950.2	1038.46	23950.8	22297.9	21796.6	21616.7	21457.3	21452.1	21274.5	21194.5	21154.6	21123.3	20935.1	21040.4	20976	20980.7	20935.5	20824.2	20824.2
569.203	56940.2	1036.38	23958.6	22242.8	21872.4	21703	21644.4	21331.5	21178.2	21183.9	21102	21012.6	20917.5	20947.2	21033	20973.9	20966.2	20886.2	20886.2
569.448	56935.3	1042.32	23946.6	22337.1	21977.2	21680.9	21601.7	21374.1	21274.3	21265.1	21241.4	21037	21022.6	20906.7	20959.7	20955.9	20949.3	20981.1	20981.1
569.693	56969	1037.42	24078	22360.5	21978.9	21824.7	21549.8	21394.1	21296.5	21371.5	21255.3	21136.3	21204.6	21211.7	21024.2	21040.9	20997.5	20983.7	20983.7
569.938	56873.9	1038.42	24076.6	22428.3	21967.7	21638.2	21595.3	21446.7	21330.3	21276.8	21325	21174.9	21260.5	21200.7	21087.1	21172.1	20991.2	20935.9	20935.9
570.183	57150.4	1041.1	24157.6	22459.3	22097.8	21848.8	21721	21614.4	21424.4	21383.2	21316.8	21257	21379.2	21173.8	21160.5	21150.4	21152.9	21157.1	21157.1
570.427	56982	1033.72	24201	22443.7	22044.1	21868.1	21701.7	21615.7	21429.5	21381	21444.3	21290.3	21247.1	21217.5	21309.9	21168.8	21057.2	21100.7	21100.7
570.672	57054.2	1034.66	24196.3	22550.2	22046.5	21921.3	21773.6	21629.4	21575.8	21545.3	21394	21345.2	21319.6	21267.4	21244.6	21195.3	21159.4	21142.4	21142.4
570.917	57062.4	1041.38	24278.1	22610.9	22281.3	21925	21815.2	21643.3	21554.7	21518.4	21537.5	21447.3	21363.7	21331.5	21254.5	21360	21275.1	21268.5	21268.5
571.162	56847.1	1044.5	24296.6	22677.2	22252.1	21927.1	21881.1	21716.1	21744.8	21598.8	21493.1	21468	21398.6	21542.2	21235	21306.6	21238.6	21239.4	21239.4
571.406	57267.2	1045.26	24500.9	22858.5	22472.1	22381	22074.2	21948.2	22049.4	21756	21877.6	21679.1	21593.6	21683.4	21571.6	21598.8	21507.7	21498.3	21498.3
571.651	57181.3	1035.46	24455.5	22762.7	22458.4	22222.2	22114.9	21856.2	21885.4	21766.2	21648.2	21767.4	21554.8	21593.8	21489.4	21474.5	21481.6	21487.7	21487.7
571.895	56983.4	1048.92	24402.4	22835.5	22338	22268.4	22078.4	21938.2	21889.8	21800.4	21721.4	21664.3	21603.6	21610.4	21495.5	21536	21574.6	21468.5	21468.5
572.14	57088.9	1043.42	24567.6	22955.5	22544.3	22379.2	22146.4	22129.5	21951.8	21865	21843.6	21718.1	21647.1	21595.5	21569.2	21588.8	21626.8	21623.4	21623.4
572.384	57053.2	1045.56	24569.8	22968.8	22577.8	22385.3	22195.3	21997.3	21893.8	21943.4	21796.2	21788.2	21784.8	21702.7	21655.7	21525.9	21543.4	21573.6	21573.6
572.628	57034	1036.4	24589.1	22880.3	22503.9	22245.4	22112.2	22094.2	21879	21846.5	21799.6	21751	21723.1	21669.8	21586.5	21557	21611.1	21551.6	21551.6
572.873	57301.8	1039.1	24695.4	23213.9	22680.1	22485.8	22261.4	22120.4	22087.5	21979.3	22077.8	21945.7	21854.3	21839.2	21867.3	21831.3	21723.3	21808.9	21808.9
573.117	57228.4	1043.54	24605.3	23167.8	22684.8	22555.5	22393.6	22261.4	22204	22060.2	22027.8	21938	21939.4	21772.1	21803.9	21771.2	21733.6	21789.3	21789.3
573.361	57257.8	1040.84	24789.7	23163.5	22682	22588.3	22412.3	22317.8	22216.9	22129.3	22045.5	21955.3	21961.5	21941.5	21850.3	21969.9	21882	21803.1	21803.1
573.605	57163.5	1036.76	24842.8	23331.9	22878.1	22652.9	22395	22283.9	22189.9	22208.6	22095.7	22082.9	21978.9	21999.9	21941.7	21961.3	21890.6	21833.4	21833.4
573.849	56983	1043.7	24815.2	23326.9	22904.7	22686.7	22433	22488.3	22265.1	22140.3	22121.3	21995	21987.7	22011.9	21888.4	22007.5	21873.1	21869.2	21869.2
574.093	57077.7	1039.86	24931.6	23310.6	22957.5	22744.4	22556.7	22471.3	22475.9	22238.7	22249.8	22167.8	22112.2	22060.3	22027	22055.2	22014.9	22026.8	22026.8
574.337	57142.3	1038.38	24925	23601	23084.3	22800.4	22698.6	22558.3	22377.9	22390.5	22348.2	22358.8	22216.5	22117.9	22150.3	22079.1	22042	22080.7	22080.7
574.581	57205.2	1037.5	25013.7	23496.8	22963	22888.9	22712.7	22621.5	22488.6	22404.9	22320	22399.7	22231.4	22218.3	22158.8	22144.2	22110.3	22169.2	22169.2
574.825	57265.4	1044.06	25029.1	23483.3	23098.3	22903.1	22864.3	22702.8	22434.3	22501.2	22455.6	22370	22260	22229.1	22174.5	22238.9	22133.3	22095.7	22095.7
575.069	57026	1045.2	24986.7	23352.7	23038.7	22864.3	22749.1	22629.9	22515.6	22458.9	22332.2	22394.4	22185.3	22157.7	22083.7	22235.1	22064.8	22038.7	22038.7
575.313	57150.5	1043.08	25048.5	23549.4	23210.3	22915.6	22874.1	22635.5	22633.6	22491.3	22526.7	22351.5	22406.1	22267.3	22245.1	22332.4	22236.5	22136.6	22136.6
575.556	57267.2	1038.28	25096.5	23675	23255.6	23072.8	22869.6	22765.6	22809.3	22565	22541.1	22552	22446.6	22474.5	22291.2	22453.8	22415.2	22384.4	22384.4
575.8	57107.4	1044.68	25177	23638.7	23336.9	23110.3	22884.8	22744.8	22720.1	22647.5	22572.8	22523.9	22471.9	22412.3	22365.4	22370.5	22463.9	22283.7	22283.7
576.044	57296.3	1040.28	25216.8	23707.3	23358.2	23196.7	23041.4	22917	22798.1	22657.4	22671.8	22531.8	22570.9	22611.6	22515	22350.4	22407	22405	22405
576.287	57103	1041.42	25180.1	23789.5	23434.2	23196.5	22961.9	22778.2	22759.9	22699.3	22706.4	22579.7	22469	22546	22472	22493.9	22325.1	22383.3	22383.3
576.531	57112.5	1034.88	25164.4	23625.9	23355.8	23156	23010.2	22838.6	22643.5	22640.2	22636.9	22568.5	22432.2	22480.9	22512.6	22348	22450.7	22265.2	22265.2
576.774	57143.9	1035.04	25124.3	23580.3	23347.5	23174.7	22841.1	22830.3	22649.2	22589.5	22688.1	22511.2	22476.9	22508.8	22539.3	22447.4	22358.8	22460.8	22460.8
577.018	57160.1	1031.84	25251.2	23697.1	23389.4	23051.2	22962.7	22794.8	22818.9	22871.7	22608.4	22509	22497	22529.2	22444.5	22464.1	22411.9	22413.9	22413.9
577.261	57202.3	1036.38	25172.6	23694.9	23351.8	23120.7	22938.9	22950.8	22804.8	22715.2	22731.2	22586.2	22586.2	22532.5	22524.7	22466.8	22408	22500.3	22500.3
577.504	57418.9	1039.8	25298.5	23873	23511.6	23318.5	23242.6	23071.9	22874.7	22919.3	22818.2	22887.4	22775.2	22682.6	22853.8	22622.4	22697.9	22661.4	22661.4
577.747	57213.5	1043.04	25298.8	23897.5	23431.2	23199.8	23152.7	23075.5	23085	22912.5	22835.5	22763.3	22738.1	22723.5	22730.6	22607.5	22612.4	22587.1	22587.1
577.991	57224.8	1036.4	25371.8	23901.9	23509.9	23248.1	23249.3	23065.5	22991.1	23030.3	22927.7	22727.2	22848.8	22772.8	22724.3	22703.8	22615.9	22663.5	22663.5
578.234	57186.4	1039.56	25272.9	23864.1	23498	23305.4	23245.3	23042.5	23085.5	22990.8	22861.5	22826.4	22760.6	22875.1	22725.8	22690.3	22755.4	22629.6	22629.6
578.477	57204	1032.92	25381.8	23857	23656.2	23349.8	23226.9	23128.4	22938.3	23068.1	22879.6	22863.5	22833	22832.1	22690.5	22702.3	22720.1	22614.3	22614.3
578.72	57065.4	1041.34	25275.2	23882.4	23549.5	23245.2	23274.6	23067.4	23056.5	22899.6	22775.5	22804.6	22777.2	22731	22679.9	22607.5	22662.2	22673.3	22673.3
578.963	57143.8	1040.16	25341.1	23909.3	23655.3	23486.2	23295.5	23174.2	22936.8	22991.8	22947.1	22933.1	22846.2	22846.7	22841.3	22768.4	22738.3	22749.9	22749.9
579.206	57031.3	1040.74	25387.2	23945.7	23523.7	23389.8	23335.5	23225.7	23167	23107.6	23064.3	22957.8	22949	22985.4	22832.5	22808.5	22730.7	22715.5	22715.5
579.448	56937.6	1035.69	25328.2	24032.6	23674.6	23450.6	23182.9	23196.8	23117.4	23138.9	23024.2	22917.9	22949	22857.9	22899.7	22730.3	22772.1	22742.1	22742.1
579.691	57164.3	1043.3	25455.1	24237.2	23816.6	23569.2	23414.1	23395.5	23242.3	23129.2	23151.4	23167.9	23017.6	23061.5	23012	22854.4	22923.6	22876	22876
579.934	57055.7	1030.98	25433	24009.5	23670.8	23473	23368.2	23282.5	23161.6	23173.9	23062.8	23007.7	22921.5	22965.2	22814.1	22828	22914.7	22813	22813
580.177	57236.9	1047.76	25391	24116.5	23940.4	23573.7	23525.7	23335.5	23275.4	23153.3	23130.8	23130.6	22967.3	22909.1	22958.1	22947.5	22939.9	23030.1	23030.1
580.419	57075.1	1039.32	25541.2	24224.4	23815.8	23619.9	23549.1	23366.4	23382	23295.2	23185.5	23171.9	23172.1	23121.7	23093.1	23044	23048.5	23023.3	23023.3
580.662	57277.5	1036.4	25629.9	24346.4	24004.1	23794.5	23540.3	23585.1	23466.1	23417.7	23313.9	23339.7	23165.3	23306.9	23309.5	23285.2	23154.5	23173.2	23173.2
580.905	57216.7	1034.44	25616.7	24357.7	24024.4	23795	23659.8	23574.8	23549.5	23479.2	23625.5	23436.4	23325.2	23230.7	23160.1	23181.1	23147.4	23187.9	23187.9
581.147	57112.7	1043	25649.7	24531.1	23939.3	23737	23641.4	23584.6	23503.4	23547.4	23389.6	23371.1	23205.6	23339.5	23228.2	23170.2	23106.8	23107	23107
581.389	57057.3	1071.4	25701.6	24385.7	24061.9	23793.1	23619	23723.4	23548.9	23435.4	23354.2	23264.7	23301.7	23370.8	23245	23224.4	23210.6	23134.8	23134.8
581.632	56984.7	1036.42	25606.5	24301.2	23995.9	23798.1	23618.8	23437.9	23378.4	23491.3	23441.4	23346.8	23258.1	23163.4	23233.5	23146.7	23162.1	23090.9	23090.9
581.874	57140	1037.62	25736.3	24463.4	23992.6	23858.4	23761.5	23591.5	23574.8	23576.8	23436.5	23463.2	23186.2	23310.4	23333.2	23260.9	23195.5	23281.8	23281.8
582.116	57165.2	1037.16	25749.2	24411.3	24072	23843.4	23664.8	23617.4	23512.4	23479.5	23370.1	23352.6	23275.4	23269	23326.6	23386.8	23221.2	23163.8	23163.8
582.359	56920.6	1037.94	25647.1	24451.9	24015.5	23782.9	23655.9	23606.1	23600.5	23513.7	23482.7	23366	23375	23262.9	23300	23264.1	23132.1	23159	23159
582.601	57090.1	1054.08	25778.5	24481.2	24068.7	24081.5	23879.3	23653.7	23603.5	23607.6	23456.5	23448.7	23411.1	23332.1	23372.8	23346.7	23298.7	23247.1	23247.1
582.843	57016.5	1041.12	25702.4	24467.6	24106.2	23939.2	23843.4	23623.5	23621.6	23502.4	23528	23479.7	23519	23400	23382.2	23320.8	23291.2	23312.1	23312.1
583.085	56828.9	1038.98	25609.3	24383.3	24106.6	23906	23774.9	23638.5	23446.6	23501.3	23415.9	23355.6	23336.3	23276.4	23286.3	23287.1	23303.9	23176.8	23176.8
583.327	57040.5	1036.64	25676.4	24423.4	24094.8	23924.9	23898.5	23696.7	23663.3	23585.7	23533.7	23420	23626.8	23447.7	23379.3	23384.4	23266	23280.3	23280.3
583.569	57120.2	1043.06	25786.6	24567.9	24230.9	24030	23901.4	23741.2	23792.4	23694.9	23521	23520.6	23497.6	23516.7	23411	23498.6	23324.6	23505.2	23505.2
583.811	57109.9	1042.87	25796.4	24521.8	24266.9	24190.1	23940.3	23906.6	23849.9	23642.9	23666.4	23544.2	23434.6	23457.6	23501.8	23482.7	23408.8	23393.5	23393.5
584.053	56905.4	1045.78	25701.5	24699.3	24202.8	23990.2	23949.5	23877.2	23803.5	23800	23632	23610.4	23479.2	23576.4	23479.9	23498	23570	23429.1	23429.1
584.295	56971.6	1038.22	25727.4	24636.2	24283.5	24059.7	23936.5	23792.2	23772.5	23712.1	23732.3	23674.6	23671.1	23489.6	23517.8	23590.1	23440.6	23455	23455
584.536	57205.2	1042.94	25893.1	24799.7	24365.6	24175.8	24114.6	24028	23815.4	23874.1	23814.2	23757.8	23768	23785.5	23681.4	23612.8	23606.6	23591.7	23591.7
584.778	56830.9	1037.1	25712.3	24571.1	24181.3	23985.9	23871.7	23868.7	23749.8	23733.9	23569.9	23697.2	23582.7	23530.6	23558.4	23427.3	23439.3	23380.7	23380.7
585.02	57065.4	1028.04	25901	24796.1	24369.1	24212.3	24065.1	24043.3	23845.7	23899.1	23796.7	23714.7	23781.1	23618.3	23653.9	23612.2	23685.4	23585.5	23585.5
585.261	56985.2	1032.6	25856.8	24696.7	24524.1	24252.1	24107.8	23994.5	23923.4	23908.4	23777.7	23716.1	23829.5	23673.5	23605.5	23601.9	23630.9	23569.4	23569.4
585.503	56861.4	1044.86	25816.6	24684	24332.6	24131.2	24003.4	23928.8	23832.8	23774.8	23771.2	23677.8	23598.4	23648	23578.1	23551.6	23511.1	23505.6	23505.6
585.744	57070.8	1043.52	25873.1	24763.7	24470.9	24276.5	24144.2	24029.8	23912.5	23849.8	23838.3	23757.7	23757.8	23665.9	23683.1	23685	23693.6	23657	23657
585.986	57011	1038.7	25786.8	24862.1	24479.3	24282.8	24082.3	23894.8	24112.7	23935	23789.6	23816.3	23718.7	23789.8	23652.2	23653.2	23588.2	23651.2	23651.2
586.227	57048.4	1042.82	25869.3	24859.6	24547.5	24334.6	24155.9	24019.6	23918.1	24007	23998.8	23815.4	23807	23784.7	23755.1	23752.8	23705.9	23628.2	23628.2
586.468	56743.5	1033.16	25817.7	24698	24517.5	24332.8	24141.8	23972.1	23825.8	23840	23889.3	23786	23675.1	23661.4	23753.4	23718.3	23727.1	23383	23383
586.71	56955.5	1043.98	25971	24856.3	24513.6	24263.3	24191.8	24053.9	24040.3	23982.7	23917.5	23865.8	23877.3	23813.7	23711.7	23807	23788.8	23714.3	23714.3
586.951	57022.2	1041.98	26000.1	24891.1	24600.6	24310.7	24208.1	24207.9	24028.8	24003	23984.3	23922.8	23713.4	23832.3	23725.7	23845	23829.4	23609.2	23609.2
587.192	56816.3	1039.52	25866.3	24703.5	24405.9	23994.5	24043.6	23984.6	23949.7	23865.7	23900	23830	23789.4	23717.2	23710.9	23642.4	23608	23646.8	23646.8
587.433	57027.4	1040.22	25904.4	24749.4	24416.4	24273.5	24122	24149.9	23985.3	23940.4	23913	23786.1	23903.5	23798.7	23718.4	23767.1	23757.5	23697.3	23697.3
587.674	57079.8	1035.36	25920.5	24767.7	24541.7	24374.1	24193.9	24166.1	24014.6	23874.7	23927.1	23935.4	24002.9	23811.5	23755.7	23780	23792.8	23760.1	23760.1
587.915	57031.7	1035.56	25946.5	24849.3	24546	24436.6	24163.4	24097.5	24113.7	23992.5	23801	23842.3	23816.9	23883.1	23784.8	23777.8	23891.7	23777	23777
588.156	57011.8	1040.3	25907.7	24870.7	24444.3	24318.9	24166	23956.6	24088	23965.2	23875.3	23873	23842.8	23772.7	23797.6	23758.7	23796	23721.5	23721.5
588.397	57185.8	1038.96	25978.5	24852.6	24570.5	24350.1	24343.9	24145.9	24106.1	23917	24014.9	23904.6	23964.6	23845.4	23826	23880.9	23772.4	23911.6	23911.6
588.638	57027.4	1039.38	25978.2	25084.9	24552.8	24432.4	24272.8	24139.4	23983.3	23937	24043	23856.1	23852	23864.2	23896.2	23776.5	23749.8	23917.5	23917.5
588.879	57029.9	1046.18	25945.4	24880.5	24562.7	24398.7	24311	24266.4	24107.3	23950.4	23959	23951.8	23977.2	23819.2	23893.2	23913.9	23794.8	23742.2	23742.2
589.119	57031.3	1040.84	25934	25059.6	24703.7	24487.1	24382.9	24279	24180.3	24169.9	24146.7	24007.7	24075.9	23943.4	24029.7	23998.1	23938.8	23865.4	23865.4
589.36	56912.2	1036.06	25973.3	24992	24610.7	24499.8	24403.1	24238.2	24121.4	24007.3	24024.2	23985.4	24057.3	23980.6	23981.2	23827.7	23868	23872.9	23872.9
589.601	56808.3	1039.68	25957.8	24952.2	24651.5	24442.3	24356	24226.8	24156.1	24088.2	24146.8	24069.3	24031.7	23973.1	23934.3	23903.3	23846.3	23861.2	23861.2
589.841	57084.7	1047.72	26095	25251.5	24783.9	24589.4	24582.5	24457.6	24360.3	24315	24176.7	24249.9	24227.2	24219.2	24062.2	24077.6	24108.9	24019.9	24019.9
590.082	56922.8	1039.64	26111.7	25064.6	24837.8	24524.9	24385.8	24314.2	24321.5	24269.7	24202.5	24264.9	24093.7	24051.3	24124.7	24001.8	23955.4	24061.1	24061.1
590.322	56989.8	1049	26005.1	25028	24697.2	24596	24548.5	24472.4	24380.1	24245.5	24295.8	24207.2	24201.2	24200.9	24135	24072	24086.8	24020.6	24020.6
590.563	57080.2	1044.56	26088.3	25225.1	24979.9	24698	24527.4	24408.3	24423.6	24217.7	24349.6	24154.9	24226.2	24140	24105	24082.5	24156.8	24078.6	24078.6
590.803	57030.4	1042.04	26068.5	25136.7	24834.6	24613.8	24442.4	24413.6	24395.7	24247.1	24187.6	24167.6	24110	24075.8	24130.3	24084	24146.8	24023	24023
591.043	56767.3	1042.14	25914.9	24887.2	24670	24447.6	24440.1	24329.1	24284.4	24235.3	24094.8	24141.6	24150.7	24015.4	24041.7	24018.1	24010.1	24000.8	24000.8
591.284	57019.5	1050.16	26084.4	25083.7	24816.9	24680.3	24427.9	24449.1	24414.6	24322.9	24341.6	24236.2	24240.4	24274.6	24155.7	24104.7	24063.3	24032.4	24032.4
591.524	57055.3	1040.81	25989.9	25177.1	24919.1	24697.5	24484.2	24614.7	24459.7	24425.7	24412.5	24360.8	24211.6	24203	24214.6	24273.2	24188.5	24202.3	24202.3
591.764	56915.1	1034.28	26013	25029.4	24752	24600.3	24633.4	24470.4	24466.3	24289	24345.6	24313.2	24211.7	24084	24185.7	24163.7	24130.2	24003.9	24003.9
592.004	56946.6	1038.2	26039.7	25030.6	24709.5	24743.8	24525.7	24463.7	24341.6	24273.5	24320.8	24293.2	24136.4	24030.9	24057.1	24159	24032.3	24024.3	24024.3
592.244	57264.7	1032.3	26227.3	25295.7	25020	24865.5	24794.9	24616.9	24579.8	24544.4	24434.3	24354.4	24447.2	24371	24282.5	24266.1	24349	24273.9	24273.9
592.484	56941	1033.04	26107.3	25228.5	24884.4	24752.5	24612.4	24550.4	24540.3	24360.1	24399.2	24274	24260.9	24199.1	24407.5	24138.2	24221.5	24192.2	24192.2
592.724	56942	1040.8	26132.7	25187.2	24930.2	24818.2	24622.6	24483.1	24500.5	24476.1	24447.6	24372.7	24407.3	24306.5	24268.5	24207.8	24153.1	24245.6	24245.6
592.964	57085.1	1043.38	26205.6	25317.1	25101.8	24905.4	24747	24620.8	24515	24376	24465.8	24400.7	24438.7	24212.6	24282.1	24197.6	24281	24206.3	24206.3
593.204	56932.8	1041.04	26099.2	25133.2	24977.9	24731.1	24724.4	24491.1	24513.7	24362.4	24439.5	24425.7	24393.9	24234	24277.7	24259.5	24219	24152.5	24152.5
593.444	56986.9	1043.86	26195.7	25161	25003.4	24789.6	24589.2	24589.3	24463.5	24574	24498.3	24350.4	24358.5	24408.2	24330.2	24303	24234.9	24221.3	24221.3
593.683	56887.7	1038.08	26224.5	25113.3	24934.8	24728.2	24621.4	24617.4	24566.5	24590.7	24447.8	24389.3	24461.8	24472.8	24267.7	24305.8	24348.3	24266	24266
593.923	56771.7	1031.78	26135.3	25152	24900.4	24780.2	24653.8	24673.2	24452.8	24552.5	24439.9	24347.9	24345.3	24317.2	24351.7	24244.1	24242.8	24103.1	24103.1
594.163	56677.8	1040.94	26066	25164.7	24964.6	24723.6	24619.1	24557.5	24556.1	24399.1	24463.2	24401	24354.1	24325.8	24236	24159.8	24167.3	24057.2	24057.2
594.402	56820.8	1037.34	26141.5	25267	25012.6	24718.9	24808	24641.3	24572.8	24499.5	24520.7	24544.2	24497.3	24405.1	24437.8	24305.7	24372.6	24320.8	24320.8
594.642	57009.7	1038.78	26247.6	25409.3	25046	24900.7	24798.3	24735.7	24604.4	24706.1	24646.4	24574.7	24475.8	24501.4	24412.3	24447.4	24483	24373.7	24373.7
594.881	56569	1046.74	26115.2	25142.3	24942.9	24772.9	24670.7	24668.5	24500.8	24360.2	24430.7	24465.7	24498.2	24347.4	24274.6	24378.6	24302.2	24200.8	24200.8
595.121	56787	1037.3	26218.2	25286.9	24974.5	24959.3	24793.8	24810.1	24658.7	24575	24527.1	24555.7	24587.8	24424.4	24401.2	24460.7	24365.5	24379.7	24379.7
595.36	56359.3	1050.42	26017.8	25148.1	24834.2	24813.8	24663	24565	24561.1	24414.3	24441.3	24468.2	24380.1	24244.7	24200.7	24428.3	24276.1	24381.6	24381.6
595.599	56424.7	1032.22	26146.2	25212.4	25051.5	24770.8	24750	24602.8	24522.3	24588.7	24487.7	24533	24389.1	24504.9	24378.4	24320.8	24303.2	24465.3	24465.3
595.839	56402.6	1051.16	26138.5	25199.1	24898.5	24914	24757.3	24628.4	24566	24584	24508.2	24421.7	24401.3	24637.9	24407.3	24417.2	24274.3	24265.9	24265.9
596.078	56346.7	1040.12	26053.5	25227.1	24956.3	24860	24706.6	24478.1	24693.3	24487.2	24415	24457.2	24444.5	24311.3	24502.8	24463.7	24305.8	24328.2	24328.2
596.317	56296.2	1044.06	26112.8	25353.1	25007.8	24931.5	24851.1	24639.2	24761.6	24559.5	24470.1	24557.5	24501.9	24404.8	24455.9	24402.3	24385.1	24372.9	24372.9
596.556	56317	1038.8	26063.3	25250.8	25095.4	24856.8	24752	24582.6	24572.6	24655.7	24582.1	24553.8	24453.7	24476.2	24589.2	24447	24422	24383.9	24383.9
596.795	56085.8	1031.78	26054.6	25268.6	24946.1	24835.3	24687.8	24696.3	24644.5	24625.9	24490.7	24390.8	24424.8	24348.7	24355.2	24388.6	24290.2	24394.9	24394.9
597.034	56044.2	1050.12	26128.1	25359.3	25079.3	24952.6	24764.6	24778	24669.8	24649.9	24542.2	24620.6	24445.1	24536.4	24501.7	24352.5	24484.5	24487.1	24487.1
597.273	55959.2	1042.2	26079.5	25354.9	25015.2	24919.6	24798.7	24753.3	24729.5	24604	24633.5	24475.5	24525.6	24607.5	24496.1	24416.6	24324.7	24298.1	24298.1
597.512	56142	1042.08	26200.4	25384	25201.6	25079.2	24954.7	24931.9	24770	24633	24689.8	24608.3	24642.2	24604.2	24573.9	24482	24571.6	24508.6	24508.6
597.751	55765.6	1034.5	26116	25334.5	25003.7	24876.3	24839	24744.1	24715.2	24650	24491.6	24592.4	24465.4	24472.9	24491.2	24470.6	24435.1	24478.8	24478.8
597.99	55746.3	1042.34	26032.5	25264.4	25019.2	24844.8	24767.1	24746.5	24637.7	24681	24610.8	24556.2	24635.7	24535.1	24437.6	24466.2	24415.1	24330.3	24330.3
598.228	55672	1037.86	25991	25204.9	25051.6	24874.9	24816.4	24764.1	24667.8	24529.3	24495.7	24608.7	24438.1	24468.4	24467.4	24367.5	24443.8	24306.9	24306.9
598.467	55700.7	1044.68	26034.4	25291.2	25005.1	24776.3	24701.8	24672.2	24655.9	24553.6	24563.5	24519	24437	24454.9	24322	24367.1	24378.7	24314	24314
598.706	55670.7	1031.71	26100.3	25360.9	25049.5	24930.8	24757.4	24739.6	24600.5	24681.8	24542	24400	24430.8	24434.2	24470.5	24348.1	24361.5	24404.6	24404.6
598.944	55256	1043.62	25863.8	25120.9	24856.3	24846.8	24626	24609.6	24485.2	24544.7	24476.9	24297	24348.5	24264.7	24288.1	24295.4	24287.9	24114.1	24114.1
599.183	55606.8	1034.46	26123.5	25338.3	25149.3	25031.5	24901.2	24795.2	24779.2	24743	24760.7	24590.4	24676.7	24521	24525.7	24540.3	24589.5	24504.7	24504.7
599.421	55481.6	1037.04	26074.5	25278	25056.3	24895.8	24831.7	24730.4	24663.7	24566.5	24574.2	24591.3	24656	24504.3	24380.8	24411.2	24517	24433.5	24433.5
599.66	55382.9	1036.68	25956.9	25278.6	24927.1	24968.1	24850.5	24881.6	24712.1	24618.6	24531.8	24519.1	24488	24438.4	24489.5	24322.7	24407.1	24540	24540
599.898	54986.2	1041.66	25867.1	25000	24928.5	24792.2	24554.4	24530.6	24408.8	24415	24445.7	24296	24401.1	24218.1	24305.6	24247	24201.7	24200.3	24200.3
600.136	55379.8	1037.62	26047.6	25254	24952.3	24982.8	24895.7	24772.5	24679	24660	24486.1	24562.4	24552.5	24358	24368	24474.4	24392.3	24330.2	24330.2
600.375	55087.5	1044.27	25840.8	25134.3	24945.1	24743.5	24803.7	24628	24533	24550.2	24526.9	24485.4	24467.1	24397	24343.9	24366.4	24376.2	24288.7	24288.7
600.613	55049	1039.33	25942.5	25250.3	24898.8	24815.7	24747.3	24663.2	24674	24538.3	24482.6	24386.9	24495.7	24397.9	24418	24320.9	24342.8	24407.1	24407.1
600.851	55059.1	1033.66	25906.3	25157.2	25002.6	24832.5	24697.6	24645.9	24430.2	24431.1	24456.5	24385.9	24363.9	24398.6	24321.4	24288.6	24369.7	24319.3	24319.3
601.089	54978.2	1040.32	25802.4	25016.3	24801.6	24815.1	24697.4	24491	24484.4	24456.2	24401	24353.2	24411.7	24303.2	24354	24317.8	24303	24256.7	24256.7
601.327	54932	1034.42	25738	25046.4	24687.9	24536	24595	24493.8	24402.7	24460	24294.9	24292.6	24320	24303.5	24234.9	24352.2	24174.3	24204	24204
601.565	54755.9	1036.3	25772.8	25041.7	24775.6	24658.8	24603.2	24591.4	24486.4	24462.3	24455.4	24365.5	24339.1	24319.9	24282.3	24264.6	24217.7	24192.5	24192.5
601.803	54790.1	1046.46	25809.8	24974.5	24802.2	24691.3	24630.8	24577.5	24584.7	24389.5	24498.5	24308.1	24382.9	24378.9	24234.1	24265.7	24209.7	24259.1	24259.1
602.041	54730.8	1038.56	25807.3	24968.1	24770.2	24791.1	24597.1	24526.2	24484.6	24417	24362.5	24309.6	24259	24266.2	24232.5	24298.6	24138.6	24288.5	24288.5
602.279	54477.6	1042.58	25723.9	24865.8	24893.4	24604.8	24572.3	24538.5	24352.7	24330.7	24239.6	24330.6	24195.4	24282.2	24211.7	24123.4	24015.9	24183.8	24183.8
602.516	54285.6	1044.86	25556.6	24837.2	24694.3	24538.2	24519	24369.6	24308.1	24203.1	24215.4	24150.9	24162.2	24054.3	24071.2	24107.5	24032.9	23910.3	23910.3
602.754	54336.8	1037.88	25624.1	24864	24736	24463.4	24456.9	24399.3	24349.8	24305.5	24334.6	24342	24111	24204.5	24225.6	24178.5	24132.3	24114.8	24114.8
602.992	54557.1	1039.3	25688.9	25031.8	24813.4	24762.4	24623	24522.6	24396.5	24427	24471.1	24421.4	24392.8	24355	24225	24280.3	24211.9	24194	24194
603.229	54359.2	1038.08	25584.2	24877.3	24614.5	24651.2	24460.7	24504.9	24330.2	24348	24389.8	24226.1	24380.7	24260.3	24243.8	24228.7	24173.7	24208.7	24208.7
603.467	54337.9	1048.12	25597	24839.4	24754.4	24497	24508.2	24405.2	24379.5	24410.7	24387	24366.5	24383.6	24312	24265	24176.2	24271.9	24043.9	24043.9
603.704	54050.7	1036.5	25526	24885.3	24639.2	24561	24531.4	24446.7	24303.5	24277.1	24222.4	24248.2	24211.7	24101.7	24207.6	24119.8	24130.7	24082.1	24082.1
603.942	53791.1	1038.08	25424.6	24755.6	24621.5	24401	24455.7	24265.6	24200	24269	24186.3	24137.8	24179.6	24083.3	24114.9	24132.5	24111.2	24106.1	24106.1
604.179	53754.5	1036.64	25406.8	24664.2	24656.6	24444.1	24388.5	24305.1	24132.6	24271.8	24201	24170.4	24068.8	24113.7	24082.2	24129	24116.5	24017.1	24017.1
604.417	53718.8	1029.1	25442.1	24750	24546.9	24462.6	24264.9	24195.5	24240.1	24201.5	24048.4	24110.7	24020.5	24143.9	24087.4	24015.9	24017.5	24086.2	24086.2
604.654	53347.8	1039.34	25231.4	24626	24458.1	24274.4	24198.9	24115.8	24137.5	24114.6	23931.5	24041.5	24007.4	23996.5	23902.5	23875	23888.7	23991.8	23991.8
604.891	53249.3	1046.92	25266.1	24495.7	24481.1	24197.3	24231.3	24129.5	24096.6	24010.8	23969.2	23979.2	23947.9	23995.5	23925.3	23915.3	23749.4	23893.6	23893.6
605.128	53178	1041.5	25280.2	24579.8	24260.6	24259.8	24144	24124.2	24034.5	23939.7	24062.4	23994.6	24004.2	23969.9	23955.2	23871.9	23769.5	23811.9	23811.9
605.366	53074.3	1033.72	25257.1	24582.3	24300.1	24233	24159.4	24161.2	24107.6	23950.5	24016.1	23930.7	23804.3	23866.7	23764.6	23889.1	23838.7	23807.3	23807.3
605.603	52953.9	1034.98	25167.2	24480.1	24226.5	24183.2	24127.8	24008.9	24006.1	23905.6	23848.2	23857.9	23952.8	23763.7	23801.4	23801.6	23805.9	23751.6	23751.6
605.84	52890.2	1040.66	25180.8	24496.3	24189.9	24075.5	24114.3	24038.3	24063.1	23927.5	23920.9	23825.3	23875.1	23772.1	23831.2	23791	23738.7	23692.7	23692.7
606.077	52871.3	1032.24	25168.6	24446.7	24168.4	24098.5	24003.3	24032.7	23917.7	23905.3	23801.6	23937.4	23882.8	23698.2	23819.7	23794.7	23812.1	23834.6	23834.6
606.314	52726.3	1035.1	25063.6	24304.3	24219.6	24094.4	23988.3	23904.1	23862.8	23771.3	23705.8	23732	23763.9	23649.9	23670	23634.8	23743.7	23565.6	23565.6
606.55	52451.2	1036.38	24873.3	24248.4	24028.4	23878.9	23808.3	23734.1	23821.9	23608.2	23689.3	23640.5	23696.9	23591.5	23637.9	23606.1	23505.4	23626	23626
606.787	52539	1040.08	24808.6	24228.6	23990.4	23968.6	23771.5	23848.4	23776.7	23779.4	23709.3	23691	23630.3	23596	23611.6	23615.1	23546.5	23563.6	23563.6
607.024	52127.1	1049.2	24715.5	24045.7	23874.9	23794.5	23718.3	23666.5	23512.7	23489.4	23596.6	23428.2	23402.2	23396	23413	23382.9	23356.5	23286.2	23286.2
607.261	52442.3	1032.68	24841	24254.6	24007.6	23945.1	23875.4	23792.5	23737.1	23773.8	23810.3	23651.4	23603.1	23523.8	23463.5	23558.1	23561	23552.4	23552.4
607.497	51833.8	1043.22	24570.3	23930.5	23567.8	23585	23569.6	23415	23433.5	23422.4	23477.7	23337.8	23387	23377.4	23284.8	23362.2	23270.9	23322	23322
607.734	51895.5	1041.04	24657.4	24067.5	23718.9	23722.8	23746.3	23579	23610.8	23602	23460.8	23458	23399.4	23483.6	23479.7	23348.6	23439.9	23368.5	23368.5
607.971	51579.1	1042.02	24565.8	23988	23880.8	23605.3	23626.2	23540.9	23488.7	23534.6	23398.4	23452.8	23422.6	23310.2	23383.6	23299	23245.6	23262.7	23262.7
608.207	51556.7	1038.9	24636	23933.5	23791.6	23704.9	23572.9	23581.9	23561.7	23368.1	23444.8	23439.3	23369	23328.8	23337.9	23223.3	23262.1	23265.2	23265.2
608.443	51133.6	1042.04	24438.2	23739.9	23589.5	23567.5	23407.5	23385.6	23370.3	23136.7	23236.5	23152.9	23203.6	23162.1	23238.2	23133.9	23135.1	23171.3	23171.3
608.68	51036.4	1035.98	24354.3	23637.7	23531.2	23522.1	23436	23251.7	23300.7	23187.8	23196.1	23232.6	23155.4	23008.1	23186.5	23189.3	23048.5	23131.3	23131.3
608.916	50958.1	1034.02	24263.9	23766.6	23558.4	23384.7	23273.5	23295.8	23175.5	23293.7	23210.7	23082.1	23151.2	23073.1	23002.8	23093.3	23014.8	23007.4	23007.4
609.153	51157	1039.42	24308.9	23755.3	23499.3	23484.1	23381.3	23324.7	23227.3	23174.9	23139.1	23186.2	23132.7	23082.6	23067.4	23052	23081.7	22961.9	22961.9
609.389	50645.8	1044.6	24108	23424.5	23366.6	23215.3	23164	23107.8	23190.1	22997.5	23097.1	22921.1	22923.9	22840.9	23001.9	22826.5	22856.1	22870	22870
609.625	50453.8	1045.62	24007.4	23391.5	23333.9	23252.9	23095.6	23143.7	23087.3	22988.5	23058	23032.7	22925.9	22789.9	22969.2	22748.5	22828.4	22833.9	22833.9
609.861	50501.2	1044.11	23991	23373.9	23311.1	23190.4	23116.2	22969.9	23008.7	22937.7	23077.3	22894.4	22956.6	22858.5	22916	22877.7	22730.3	22955.5	22955.5
610.097	50176.3	1032.98	23845.8	23243.1	23062.8	23014.9	23103.2	22899.3	22935	22893	22809.1	22785.3	22810.2	22720.4	22763.2	22663.4	22726.8	22729	22729
610.333	50189.8	1041.82	23698.9	23293.6	23073.2	23034.3	22816.2	22868.6	22778	22739.8	22772.6	22738.1	22684.6	22661.4	22630.4	22542.6	22533.3	22472.2	22472.2
610.569	50055.2	1045.38	23559	23249.3	23092.1	22957.3	22856.5	22943.1	22739.7	22741.6	22637	22580	22704.8	22557.5	22607	22620.2	22517	22575.5	22575.5
610.805	49745	1038	23520.1	23046	22993.9	22757.2	22677.5	22616.8	22565.7	22635.6	22535.5	22586.7	22474.8	22469.5	22540.7	22469.1	22410.9	22493.4	22493.4
611.041	49607	1036.58	23447.6	23070.4	22839.9	22799	22708.8	22700.6	22613.2	22553.6	22562.2	22530.2	22594.4	22482	22422.1	22453.2	22477.8	22497.1	22497.1
611.277	49611.7	1053.7	23396	22892	22850.1	22747.5	22734.5	22609.8	22613.1	22425.1	22576.6	22442.8	22476.8	22482.6	22395.7	22436.7	22431.4	22438	22438
611.512	49250.6	1028.32	23208.3	22721	22648.8	22490	22495	22397.8	22399	22384.6	22411.1	22329.2	22252.6	22253.4	22249.3	22247.2	22159.1	22244.6	22244.6
611.748	49265.4	1036.08	23204.6	22808.5	22584.8	22479.7	22400.7	22456.9	22280.4	22330	22295.6	22294.2	22328.1	22259	22306.5	22145.4	22212.4	22223.5	22223.5
611.984	48887.5	1040.04	23148	22615.7	22385.6	22410.5	22234.7	22307.8	22222.9	22123.3	22166.8	22115.7	22124.4	21950.4	22180.9	22089.2	22104	22079.6	22079.6
612.219	48926.3	1034.26	23087.4	22674.3	22452.8	22266.2	22229.2	22200.9	22136.5	22171.7	22249.5	22035.7	22133.9	22102.3	22074.8	22191.9	22086.3	22038.8	22038.8
612.455	48398.4	1036.88	22977.5	22398.1	22273.6	22030.6	22141	21904.3	21937.7	21963.4	21898.9	21878.4	21864.6	21817.2	21859.2	21779.4	21823.9	21876.8	21876.8
612.69	48310.9	1037.1	22922.2	22425.8	22339.4	22196.8	22103.1	22076.6	22031.5	21917.5	21923.7	21915.9	21838.8	21889.5	21820.9	21893.8	21865.5	21791.6	21791.6
612.926	48344.6	1035.54	22957.4	22438.9	22205.3	22034.9	22051.9	22008.1	22028.3	21964.7	21919.6	21941.1	22007.7	21895.7	21821.3	21894	21836.3	21929.7	21929.7
613.161	47799	1034.28	22605.8	22214.7	21989.7	21819.8	21900.9	21834.2	21825.8	21786	21717.8	21774.3	21612	21596.9	21562.4	21580.3	21475.5	21520.5	21520.5
613.397	48001.5	1038.28	22692.1	22135.6	22061.6	21980.8	21887.6	21836.9	21787.9	21800.5	21814	21755.1	21718.6	21672.4	21731.6	21609.4	21606.7	21584.5	21584.5
613.632	47569.4	1040.12	22512	22025.8	21809.6	21856.9	21692.3	21594.2	21657.5	21705.3	21531.6	21564.8	21613.2	21569.5	21511	21553.1	21452	21479.8	21479.8
613.867	47444.2	1042.3	22395.2	21952.8	21901.3	21634	21753.8	21600	21620.9	21434.6	21537.3	21531.1	21509.8	21473	21485.5	21425.2	21428.1	21355.7	21355.7
614.102	47215.2	1041.68	22327.9	21921.7	21729.7	21749.1	21647.5	21605.2	21534.7	21449.2	21490.9	21502.9	21453.8	21490.7	21391.1	21324.5	21295.5	21375.9	21375.9
614.337	46914.6	1037.4	22208.7	21789.6	21674	21548.8	21430.8	21428.8	21497.6	21413	21247.1	21393.8	21283.4	21274.4	21205.9	21158.4	21234.4	21177.5	21177.5
614.572	46566.4	1036.04	22010.3	21552.3	21580.5	21346.3	21160.8	21262.1	21196.9	21183.5	21098.1	21126.1	21042.5	21073.3	20962.3	21001.3	20937.7	20963.5	20963.5
614.808	46578	1040.9	21910.1	21370.1	21455.4	21315.9	21206.5	21222.1	21105.7	21072.1	21080.7	21101.4	21085.3	20894.3	21073.2	21015.2	21045.1	20917.4	20917.4
615.042	46258.7	1045.34	21855.4	21329.7	21331.3	21156.6	21040.7	21104.1	21089.7	21105.2	21092.9	20890.1	20953.9	20877.9	20906.9	20828.7	20814.4	20924.8	20924.8
615.277	46079.4	1036.8	21779.1	21215.8	21137.6	21138.5	20982.2	20930.6	20985.2	20836.8	20918.4	20993.2	20749	20756.4	20762.2	20815.8	20761.6	20697.1	20697.1
615.512	46114.9	1036.4	21779.1	21257	21098.8	21045.8	20972	21009.8	20942.4	20920.6	20875.8	20860.6	20859	20828.9	20792.4	20834	20779.2	20767.8	20767.8
615.747	45529.6	1032.34	21469.1	21052.9	20884.8	20898.4	20716.7	20635.5	20689.1	20693.9	20630.7	20582.7	20609.4	20578.5	20509.2	20497.9	20537.7	20545.9	20545.9
615.982	45585	1041.7	21547.6	21061	20891.8	20922.8	20758	20799.4	20795.8	20604.6	20672.2	20819.4	20576.2	20678	20585.6	20584.7	20684.8	20529.8	20529.8
616.216	45404.7	1039.58	21535	20922.8	21026.7	20787	20708.7	20815.4	20670.4	20687.3	20609.6	20699.4	20649.2	20548.6	20555.6	20539.8	20550.3	20615.8	20615.8
616.451	45093.4	1038.52	21277.4	20821.8	20668.2	20572.2	20527.2	20566	20456.2	20436.5	20455	20320.8	20330.7	20362.7	20352.8	20279.5	20307	20191.2	20191.2
616.686	44743.4	1040.8	21090.8	20638.9	20510.2	20449.4	20314.8	20322.8	20459.4	20276.3	20248	20251.2	20198.6	20279.7	20184.8	20202.3	20188	20186.3	20186.3
616.92	44641.2	1035.64	20990.9	20544.3	20321.3	20287.7	20223.5	20252.9	20291.1	20233.5	20322.4	20143.2	20067.3	20212.4	20147.3	20196.9	20088.5	20099.1	20099.1
617.155	44460.3	1040.2	20954.4	20524.9	20426.6	20342.6	20296.4	20343.4	20190.4	20175.6	20105.6	20123.6	20136.3	20122.9	20088.8	20013.1	20070.6	20075.8	20075.8
617.389	44278	1037.52	20831.6	20460.3	20243.3	20181.3	20266.1	20098.6	20011.5	20102.8	19983.1	20064.3	19963.1	19923.3	20002.9	20011.3	20047.3	19884.7	19884.7
617.624	43965.2	1034	20744.6	20193.4	20188	20050.3	20066.6	19985	20030	19878	19828.9	19846.8	19949.1	19850.4	19746	19812.8	19848.4	19690.4	19690.4
617.858	43889.5	1034.84	20775.1	20231.6	20175.6	20093.4	19999.6	20006.6	19967.6	19904.4	19954.8	19831.7	19835.2	19842	19872.6	19795.2	19773.2	19866.7	19866.7
618.092	43579.1	1044.12	20572.3	20125.7	20039.5	19917.1	19852.1	19859.5	19795.2	19791.8	19852	19662.1	19699.9	19722.1	19669	19612.3	19632.8	19631.2	19631.2
618.326	43383.6	1042.7	20504.7	20024.2	19895.1	19886.2	19874.9	19801.7	19717.7	19724.1	19714.5	19615.1	19667.2	19608.8	19649.9	19554	19652.7	19504.3	19504.3
618.561	43225.4	1038.36	20410	20051	19913.6	19774.6	19841.5	19716	19762.9	19662.2	19593	19572.2	19591.6	19587.8	19555.6	19466.6	19508.6	19491.2	19491.2
618.795	42872.6	1033.36	20270.4	19820.9	19700.1	19653.1	19642.8	19537.1	19640.1	19465.7	19463.1	19459.7	19441.6	19390.5	19468.3	19408.4	19361.3	19416.5	19416.5
619.029	42716.4	1036.64	20164.9	19784.4	19605.2	19574.5	19692.8	19629.7	19508.4	19494	19422.5	19609.4	19379	19339.3	19385.4	19405	19409.2	19275.6	19275.6
619.263	42527.4	1038.36	20029.3	19689.5	19616.7	19550.1	19560.8	19581.6	19594.9	19380.2	19375.3	19464.9	19364.5	19275.9	19289.7	19272.5	19276.3	19342.9	19342.9
619.497	42313.9	1041.08	20000.4	19592.9	19484.8	19504.1	19398	19399.3	19411.1	19222.7	19256.9	19235.1	19267.9	19266.8	19228.7	19197.9	19187.7	19166.1	19166.1
619.731	42233.2	1043.54	19940.4	19528.2	19533.4	19323.8	19365.8	19370.8	19270.8	19151.7	19147	19180	19174	19208.2	19071.5	19143.2	19147.6	19123.2	19123.2
619.964	42071.9	1045.48	19838.2	19525.1	19421.1	19239.7	19300.9	19236.3	19219.1	19064.9	19097.5	19106	19144.1	19205.7	19101.1	19077.9	19138.2	19019.1	19019.1
620.198	41945.4	1039.36	19822.2	19453.8	19256.8	19240.6	19145.8	19207.4	19164.4	19041	19190.2	19146.2	19018.6	18934.6	18960.1	18996.9	19008.6	18913.8	18913.8
620.432	41581.6	1033.42	19701.2	19358.5	19101.3	19069.9	19076.9	19081.9	18993.5	18963.1	18947.7	18965.7	18906.1	18924.1	18837.7	18923.1	18918.7	18861.9	18861.9
620.666	41314.7	1034.12	19535.9	19150.4	18998.7	18957.6	18978.6	18951.6	18818.2	18764	18888.8	18853.1	18764.4	18710.6	18838.4	18757.4	18642.2	18690.4	18690.4
620.899	41196.8	1034.6	19494.3	19142.2	19139.6	18946.4	18862.8	18964	18821	18815.2	18839	18754.6	18679.6	18688.6	18641.6	18572.4	18728.4	18696.4	18696.4
621.133	41103.3	1037.72	19377.1	19132.8	18902.2	18766.4	18801	18742.2	18657.8	18679.2	18601.6	18647.5	18667.4	18716.2	18651.2	18624.4	18580.4	18576.2	18576.2
621.366	40933.7	1035.76	19349.4	18994.2	18706.8	18706.8	18755.6	18649.4	18668.8	18647.4	18599.6	18538	18589.2	18593.4	18533.2	18672.6	18500.6	18471.6	18471.6
621.6	40753.2	1031.66	19214.5	18875.6	18778	18728.8	18670.6	18683.4	18601	18521.1	18510	18455.2	18540.4	18513.3	18499.2	18464.4	18486	18432.6	18432.6
621.833	40573.2	1034	19164.8	18784.6	18694.9	18688.5	18695.7	18579.1	18554.2	18487.3	18349.8	18442.5	18443.1	18324.9	18417.3	18456.7	18394.1	18363.7	18363.7
622.067	40227.4	1053.94	19062.9	18700.7	18485.7	18460.3	18345.9	18375.5	18363.1	18153.5	18319.1	18314.1	18327.1	18223.5	18292.7	18441.3	18215.3	18226.7	18226.7
622.3	40143.8	1050.86	18943	18498.1	18440.7	18411.7	18382.6	18309.3	18292.2	18244.4	18293.4	18218.5	18186.5	18262.1	18090.1	18200.8	18207.5	18107.7	18107.7
622.533	40090.3	1039.26	18903.9	18584.5	18492.7	18370.9	18347.9	18282.7	18357.7	18257.1	18160.3	18292.9	18217.7	18181.9	18239.1	18152.1	18187.7	18145.6	18145.6
622.766	40056.6	1044.02	18902.3	18477.7	18505.4	18469.6	18281.4	18272	18318.6	18214.2	18187.1	18245.4	18203	18154.4	18274.2	18078.5	18140.8	18081.4	18081.4
623	39700.1	1037.86	18718.2	18380.4	18300.8	18245	18253.2	18154.2	18082.2	18009.4	18112.5	18111.9	17994.3	18026.2	18008.8	18009.4	17958.6	18115.2	18115.2
623.233	39479.6	1032.78	18632.3	18241.9	18255.7	18063.7	18096.9	17924.1	17989.9	18026.9	17896.3	17950.8	17975.3	17923.7	17817.3	17826.9	17955	17945.9	17945.9
623.466	39332.2	1037.52	18461.8	18190	17997	18033	17981.7	17991.8	17885.1	18027.4	17918.8	17882.2	17908.4	17796	17863.2	17740.8	17816	17844.2	17844.2
623.699	39246.6	1031.74	18466.4	18199.5	18080.5	17949	17913.5	17805.1	17916.1	17924.1	17898.8	17853.5	17881	17784.8	17765.5	17827.5	17815.3	17766.1	17766.1
623.932	39087.6	1037.1	18422.9	18182.6	18042.3	17990	17965.2	17919.2	17903	17872	17737.6	17762.8	17771.4	17777.4	17781.2	17670.4	17698	17730	17730
624.165	39018.3	1036.66	18328.1	17969.8	17874	17894	17796.6	17769.2	17754	17689.4	17687.8	17720.4	17781.3	17665.4	17660	17635	17670.7	17603	17603
624.397	38500.5	1038.06	18131.9	17838	17743.8	17693.8	17640.6	17642.4	17702	17484.1	17492.6	17596.9	17525.2	17485.4	17486.4	17551.2	17375.4	17451	17451
624.63	38696.5	1034.28	18218.5	17946.9	17825.9	17793.3	17764.3	17667.9	17629.8	17657.1	17547.2	17590.9	17581.1	17532.7	17591.9	17481.5	17470.9	17472.1	17472.1
624.863	38536.5	1028.92	18114	17868.1	17731.7	17717.3	17637.7	17683.9	17553.5	17564.5	17506.5	17492.1	17486.5	17573.3	17443.9	17484.7	17422.1	17423.3	17423.3
625.096	38222.6	1032.8	18035.3	17701.6	17627.2	17571.8	17507.4	17511.6	17585.1	17423.8	17422	17407.6	17361.4	17264.8	17403.8	17307.8	17336.4	17421.4	17421.4
625.328	38037.9	1040.94	18000.2	17678.8	17615.8	17567.4	17436.9	17509	17419.2	17447	17423.6	17337.3	17239.4	17384.8	17235.2	17329.4	17404.8	17372.6	17372.6
625.561	37685.6	1034.96	17797.1	17552.7	17374.5	17364.1	17210.9	17265.9	17198.7	17309.7	17190.7	17129.7	17084.5	17094.5	17096.8	17139.7	17109.9	17116.3	17116.3
625.793	37762.7	1037.14	17827.8	17518	17425.1	17312.3	17349.3	17323.3	17281.7	17255.1	17253.1	17231.3	17178.1	17182.9	17136.1	17267.9	17138.7	17090.5	17090.5
626.026	37477.1	1047.96	17721.8	17278.9	17250.5	17158.1	17134.3	17265.3	17070.9	17024.9	17160.3	17123.3	17057.1	17061.1	16973.5	16980.3	16987.1	16972.1	16972.1
626.258	37481.9	1029.46	17691.9	17326.4	17247.3	17274.9	17180.4	17122.9	17101.1	17110.5	17115.5	17092.7	17071.9	17013.3	17065.9	17007.1	17018.7	17031.9	17031.9
626.49	37486.8	1039.21	17655.4	17449.4	17255	17221.6	17164.6	17047	17174.2	16986.2	17124.8	17030.6	17152.8	17156	17111.8	17069.2	17108.8	17057	17057
626.723	36998.7	1036.26	17431.7	17167.2	17022.4	17085.2	16948.2	16920.4	16949	16950.8	16861.9	16890.4	16821.4	16855	16888.6	16877.8	16828	16796.6	16796.6
626.955	37044.1	1036.08	17491.6	17208.7	17092.9	17071.7	17027.5	16951.5	16975.9	16881.9	16907.9	16922.1	16829.7	16893.1	16775.9	16865.7	16773.3	16840.1	16840.1
627.187	36775.5	1041.9	17355.1	17091.8	16919	16928.2	16843.4	16826.4	16798.4	16756.2	16767.4	16717.8	16804.4	16621.8	16764.8	16689	16626.6	16678.2	16678.2
627.419	36622.3	1038.56	17247	17011.8	16987.4	16699.4	16783.2	16833.4	16692.4	16762.7	16674.4	16684.2	16616.4	16635.2	16644	16624	16663.6	16616.6	16616.6
627.651	36528	1035.5	17241.9	16959.4	16853	16809.2	16832	16657.9	16678.6	16705	16785	16691	16688	16593.8	16705.4	16512.2	16689.4	16524.6	16524.6
627.884	36238.8	1042.08	17055.9	16894.5	16753.7	16776.1	16556.5	16518.7	16529.1	16709.9	16652.9	16511.7	16499.5	16419.9	16594.7	16474.7	16490.7	16427.4	16427.4
628.115	36164	1042.5	17033.1	16786.1	16715.5	16530.3	16513.9	16492.1	16521.9	16504.1	16525.5	16540.3	16469.5	16410.1	16396.8	16322.9	16345.7	16338.7	16338.7
628.347	35979.4	1041.38	16990.5	16781.5	16582.5	16616.5	16597.9	16464.5	16426.1	16445.9	16356.5	16349.1	16355.1	16446.7	16396.1	16260.5	16354.7	16265.7	16265.7
628.579	35781.9	1037.79	16964.8	16491.3	16562.7	16477.1	16294.3	16398.1	16292.5	16333.7	16248.5	16413.5	16220.5	16215.1	16303.7	16222.1	16170.7	16219.7	16219.7
628.811	35582.4	1041.48	16857.6	16566.2	16482.8	16469.1	16435.4	16202.8	16290.2	16201.4	16238.2	16186.4	16190.2	16219.6	16205.2	16145.6	16202	16171	16171
629.043	35522.7	1037.3	16755.7	16459.7	16417.3	16348	16253.5	16298.9	16269.3	16302.9	16129.3	16157.7	16170.6	16198.1	16170.9	16131.5	16128.1	16139.1	16139.1
629.275	35448	1035.48	16712.9	16436.9	16407.9	16334.3	16272.9	16207.7	16315.3	16242.9	16150.3	16233.3	16168.9	16108.2	16159.5	16122.1	16080.3	16107.3	16107.3
629.506	35254	1042.76	16647.4	16302.5	16274.1	16206.9	16140.3	16209.3	16105.1	16117.1	16002.3	16035.7	16061.3	16077.7	16124.5	15997.5	16008.1	16017.9	16017.9
629.738	34995.1	1041.86	16504.6	16242.1	16119.5	16033.7	16133.9	16082.1	15985.9	16007.7	15935.3	15982.9	16044.3	15953.5	16017.1	16020.7	15947.1	15924.5	15924.5
629.969	35022.3	1037.86	16577.9	16292.6	16190	16056.6	16099.8	16089.2	16096.4	16121.8	16065.6	16060	16038	16035.4	16020.2	16059.2	15962.8	15882.6	15882.6
630.201	34601.3	1035.02	16407.3	16182.5	16052.4	15922.1	16018.5	15961.1	16011.7	15938.3	15868.7	15871.7	15853.5	15868.7	15830.3	15876.3	15845.1	15714.5	15714.5
630.432	34479.8	1036.34	16342.1	16106.9	15969.1	15970.3	15929.7	15941.7	15873.9	15925.7	15820.9	15895.5	15806.5	15784.1	15746.3	15828.3	15725.7	15798.7	15798.7
630.664	34493.7	1045.22	16417.4	16150.9	16034.7	16003.7	15907.7	15954.9	15916.5	15849.3	15926.3	15911.1	15915.3	15726.9	15812.9	15844.1	15798.3	15744.3	15744.3
630.895	34090	1032.78	16236	15949.1	15796.7	15819.7	15811.1	15756.7	15703.7	15714.9	15719.8	15673.7	15712.7	15685.1	15690.7	15620.7	15658.9	15637.1	15637.1
631.126	34203.7	1037.02	16265.9	16016.7	15978.3	15940.7	15867.5	15897.7	15865.7	15803.1	15804.9	15846.3	15739.5	15736.9	15700.7	15702.3	15770.1	15632.1	15632.1
631.358	34022	1035.64	16219.8	15958.1	15868.3	15845.2	15780.5	15806.1	15828.9	15749.1	15679.5	15636.9	15739.3	15719.3	15683.3	15705.5	15596.7	15654.5	15654.5
631.589	33897.6	1041.4	16178.3	15924.7	15828.3	15760.9	15741.7	15749.1	15754.5	15661.9	15774.7	15590.9	15578.1	15621.5	15527.9	15655.5	15600.3	15610.9	15610.9
631.82	33656	1024.78	16012.5	15783.3	15662.7	15586.5	15592.3	15667.3	15647.7	15507.9	15561.5	15445.1	15448.1	15483.7	15467.9	15478.9	15437.5	15469.1	15469.1
632.051	33576.7	1033.74	15940.3	15733.4	15688.8	15658.8	15586.8	15562	15435.8	15408.2	15497.2	15551.2	15471.8	15450.4	15403.2	15433.4	15457.6	15330.6	15330.6
632.282	33392.6	1033.46	15887.9	15593.1	15512.3	15541.5	15506.9	15460.5	15378.5	15415.9	15405.3	15311.3	15290.5	15365.9	15374.5	15316.3	15344.5	15307.7	15307.7
632.513	33144.5	1032.86	15812.6	15538.2	15539	15375.4	15405.8	15385.2	15431	15350.8	15294.4	15298.8	15285.2	15250.8	15285	15239.2	15243	15260.4	15260.4
632.744	33121.1	1042.82	15699.9	15464.3	15565.4	15499.5	15422.1	15323.1	15370.9	15287.3	15309.9	15269.5	15226.7	15360.3	15209.9	15259.9	15224.9	15323	15323
632.975	32917.1	1041.54	15674.1	15477.5	15473.9	15276.5	15350.3	15302.5	15276.1	15383.5	15367.3	15248.5	15300.3	15227.1	15234.5	15169.5	15224.3	15255.7	15255.7
633.206	32755.6	1035.5	15650.5	15460.9	15378.7	15330.7	15282.3	15304.9	15240.9	15191.5	15204.3	15217.5	15261.9	15202.9	15121.7	15209.7	15132.9	15180.1	15180.1
633.436	32663.9	1053.32	15627	15399.3	15320.7	15375.9	15284.9	15197.7	15216.7	15127.7	15242.1	15112.9	15191.9	15115.1	15060.9	15190.1	15207.9	15064.3	15064.3
633.667	32526.1	1045.02	15588	15268.2	15349.4	15143	15155.6	15195.8	15147.2	15167	15039.6	15097.4	15007.2	14983.8	15058.2	14990.8	15032.8	14971.8	14971.8
633.898	32210.2	1039.86	15464.7	15174.9	15181.4	15112.2	15102.6	15033.8	15086.2	14973.8	14968.8	14949.6	14883	14972	14936.3	14954.8	14860.4	14897	14897
634.128	32238	1031.54	15444.4	15221.3	15145.7	15118.7	14988.9	14995.7	14960.1	14982.7	14930.7	15036.3	14989.7	14904.5	14973.1	14859.5	14885.1	14827.5	14827.5
634.359	32023.8	1034.78	15322.8	15065.1	15042.5	15040.7	14953.7	14971.7	14910.7	14932.9	14849.7	14891.1	14857.3	14741.5	14784.7	14779.3	14828.1	14807.3	14807.3
634.589	32126.4	1033.88	15340.6	15194.4	15069.2	14921	15002	14956.6	14956	14887	14888.6	14853.6	14865.4	14886.6	14923.2	14829.4	14892.8	14772	14772
634.82	31841.2	1035.64	15300.4	15084.2	15027.4	14880.1	14892.2	14798.8	14838	14895.8	14752	14872.2	14864.8	14716.4	14790.4	14761.2	14763	14711.8	14711.8
635.05	31820.1	1036.06	15198.8	15095.8	14914.2	14909.6	14802.8	14872.8	14888	14815.8	14775.4	14786.6	14795.8	14735.4	14668.2	14768.8	14742.4	14734.4	14734.4
635.281	31443.9	1042.8	15015.3	14872	14709.6	14706.8	14681.1	14673.4	14580.4	14574.6	14616	14628.4	14548.4	14593.6	14547.6	14642	14573.3	14611	14611
635.511	31474.9	1045.02	14990.4	14909.8	14695.4	14681.6	14681.6	14681.2	14587.6	14652	14617.6	14597.6	14597.2	14593.2	14606.4	14573	14585	14531.2	14531.2
635.741	31313	1042.12	14981.6	14844.1	14705.1	14562.1	14686.3	14611.9	14569.7	14585.3	14554.9	14459.7	14610.9	14571.1	14521.9	14513.9	14571.7	14480.7	14480.7
635.971	31123.1	1037.3	14854.7	14684	14582.4	14631.2	14514.6	14507.2	14469.6	14450.4	14375.6	14415.2	14386.4	14483	14402.6	14459.8	14419.2	14465.2	14465.2
636.201	30925.9	1030.96	14774.4	14545.5	14458.9	14522.3	14389.5	14479.1	14477.1	14408.1	14423.5	14348.7	14330.9	14354.5	14317.1	14317.9	14285.1	14244.3	14244.3
636.432	30976	1046.58	14836.8	14607.1	14508.7	14552.5	14492.5	14464.5	14404.3	14366.5	14306.5	14349.9	14313.3	14389.5	14309.3	14406.3	14299.9	14291.5	14291.5
636.662	30710.8	1044.7	14753.1	14514.6	14372.8	14328.8	14369.6	14323.4	14347.2	14320.2	14360	14160.6	14260.4	14248	14279.4	14221.2	14159.4	14240.4	14240.4
636.891	30475	1036.64	14617.7	14386.5	14445.3	14347.3	14306.7	14227.1	14249.5	14240.9	14230.7	14194.3	14239.5	14197.5	14210.5	14175.3	14104.6	14163.5	14163.5
637.121	30550.2	1034.22	14726.7	14430.8	14383.4	14336.4	14345	14281.6	14283.6	14317.8	14174	14192	14237.8	14202	14214	14215	14224.4	14204	14204
637.351	30157.7	1034.82	14497.6	14203.1	14240.7	14216.3	14142.7	14024.3	14077.7	14050.3	14173.7	14125.5	14128.3	14085.7	13998.3	13991.9	14033.3	14051.3	14051.3
637.581	30040.9	1041.46	14410.8	14224.4	14122.6	14199.2	14022.4	14123.2	14174.6	14055.8	14030.2	13949	13963.2	14096	14062	14018.4	13973.6	13938.6	13938.6
637.811	30071.6	1040.56	14416.9	14215.1	14125.9	14137.1	14090.9	14192.9	14082.7	14003.5	14005.9	14133.3	13991.9	13989.5	13987.9	14039.7	13973.1	13995.1	13995.1
638.041	29652.7	1036.08	14271.5	13932.2	14035.6	13903.2	13981.6	13929	13923.8	13862.4	13905	13850.2	13828.2	13854.8	13824.4	13782	13850.6	13781.6	13781.6
638.27	29749.7	1030.68	14291.4	14178.8	14071.2	13959.8	14030.8	13980.6	13982.8	13987	13888.4	13881.1	13874.6	13967	13872.6	13941.6	13791.6	13856	13856
638.5	29512.5	1045.14	14203.1	13990.2	13970.8	13896.4	13845	13866	13782	13804.4	13848.8	13860.2	13805.8	13710.6	13789.8	13801	13703.2	13694.2	13694.2
638.729	29430.3	1042.56	14114.1	13937.6	13910.2	13850.8	13748.2	13779	13765	13741.6	13766	13778.4	13712	13723.8	13764.6	13633.8	13626	13681	13681
638.959	29278.7	1040.96	14095	13925.3	13902.5	13834.7	13755.3	13835.9	13777.7	13797.5	13748.9	13694.1	13714.9	13635.3	13609.5	13605.9	13635.7	13656.3	13656.3
639.188	29061.5	1042.6	13964	13780.2	13763.2	13758.4	13740.2	13786.8	13626.4	13650.2	13661.8	13628.4	13680.4	13604.4	13515	13605.8	13627.6	13576.8	13576.8
639.418	28983.5	1042.24	13922.7	13715.1	13750.5	13653.3	13706.5	13668.1	13611.3	13642.1	13617.5	13612.9	13565.3	13496.3	13545.9	13577.9	13502.3	13524.5	13524.5
639.647	28847	1035.36	13894.1	13754.5	13599.9	13603.5	13636.3	13559.9	13609.1	13513.5	13539.3	13492.9	13583.3	13550.3	13521.7	13434.7	13462.9	13405.7	13405.7
639.876	28597.3	1040.68	13824	13614.1	13566.3	13489.5	13420.1	13456.9	13447.9	13410.3	13471.9	13410.9	13443.1	13416.1	13436.1	13500.5	13336.9	13302.9	13302.9
640.105	28560.3	1041.34	13790.5	13569.6	13606.4	13485.8	13482.6	13457	13479	13445.2	13414.8	13423.6	13358.2	13479.4	13489	13370.4	13314.4	13348	13348
640.335	28452.7	1029.38	13768	13541.2	13495.4	13487.6	13440.2	13419.6	13384.4	13367.6	13443	13368.4	13361.6	13407.2	13378.6	13353.2	13356.6	13402.8	13402.8
640.564	28276	1036.54	13630.7	13403.3	13429.9	13391.1	13419.5	13302.9	13332.5	13331.9	13395.5	13277.3	13369.9	13270.3	13230.7	13260.3	13210.1	13293.3	13293.3
640.793	28238.6	1040.2	13587.7	13428.5	13389.7	13379.1	13286.1	13346.1	13295.7	13212.3	13320.7	13260.5	13228.3	13220.1	13211.3	13111.9	13241.7	13184.9	13184.9
641.022	27961.3	1050.64	13499.6	13228.1	13258.9	13220.3	13175.5	13221.1	13153.5	13152.9	13102.3	13167.9	13120.1	12976.3	13134.1	13087.3	13023.3	13139.3	13139.3
641.251	27943.2	1037.66	13476.1	13250.9	13207.7	13321.9	13213.5	13177.3	13180.3	13209.3	13065.1	13040.1	13058.9	13086.4	13143.7	13149.7	13052.1	13069.1	13069.1
641.48	27841.8	1031.44	13450.3	13230.2	13249	13165.2	13130.2	13195.4	13135.2	13091.4	13035	13033.8	13030.6	13034.2	13103.2	12971.6	13009.8	13045.4	13045.4
641.708	27578.8	1047.78	13354.9	13138	13164	13007.8	13076.6	13054.8	13051.6	12931.8	13018.6	12938.6	12965.6	13032.2	12900.2	12865.4	12953	12946.8	12946.8
641.937	27558.6	1041.1	13286.7	13129.6	13144.4	13003.8	12979	13076.6	13066.6	12972.2	12965.4	12978.8	12880.8	12932.2	12877.8	12873.4	12839.2	12881.6	12881.6
642.166	27259.4	1045.16	13150.4	12994.9	12916.3	12925.3	12913.5	12822.1	12817.1	12867.1	12855.3	12761.7	12827.3	12814.7	12797.3	12746.7	12766.7	12708.1	12708.1
642.395	27333.1	1042.82	13201.8	13062.9	12900.1	12996.7	12896.3	12888.3	12862.5	12798.7	12786.7	12797.3	12769.1	12797.3	12760.5	12823.5	12769.1	12711.3	12711.3
642.623	27021.3	1035.14	13018	12904.4	12746.4	12646.6	12716	12752	12744.6	12719.8	12642.6	12702.8	12714	12684.2	12617.2	12704.8	12650.6	12646.8	12646.8
642.852	26924.1	1032.58	12961.6	12749.5	12740.7	12713.7	12676.9	12653.3	12665.5	12728.9	12719.1	12688.9	12545.3	12543.7	12561.1	12551.5	12585.3	12656.9	12656.9
643.08	26961.8	1037.4	13002.8	12793.5	12740.9	12730.9	12721.3	12742.1	12661.7	12689.5	12672.9	12627.7	12598.9	12739.5	12568.5	12558.1	12560.9	12641.7	12641.7
643.309	26746.1	1034.32	12891.7	12687.2	12736	12590.6	12589.8	12634.8	12561.2	12570.4	12489.6	12532	12511	12530.6	12470	12509.4	12563.6	12477.8	12477.8
643.537	26576.3	1039.68	12750.8	12667.8	12581.4	12590.8	12458.4	12505	12557.6	12453.6	12496.8	12363.2	12492.4	12443.4	12460.2	12354.6	12429.6	12443.2	12443.2
643.766	26581.6	1042.78	12766.6	12622	12584	12553.6	12509.8	12483	12546.8	12476.8	12462.8	12416.8	12418.2	12389.8	12460.8	12361.2	12527.8	12392.6	12392.6
643.994	26197.5	1036.84	12631.2	12473.4	12404.4	12386	12406.4	12347.6	12337	12378.2	12288.6	12267.8	12272.8	12266.4	12255.6	12263.4	12249	12240.6	12240.6
644.222	26038.4	1030.55	12529.1	12411.3	12417.3	12351.3	12334.7	12283.3	12317.1	12309.1	12260.7	12317.9	12248.3	12274.1	12253.9	12229.9	12222.3	12191.1	12191.1
644.45	26121.3	1041.92	12619.8	12506.9	12375.7	12371.1	12355.5	12472.5	12440.5	12343.9	12280.1	12310.7	12301.3	12255.3	12263.3	12300.1	12264.5	12198.1	12198.1
644.679	25887.4	1036.92	12470.9	12295.7	12217.3	12235.5	12211.7	12196.3	12206.1	12180.1	12114.1	12096.7	12125.5	12113.5	12088.5	12069.7	12154.9	12114.9	12114.9
644.907	25657.7	1043.38	12349.3	12178.3	12161.9	12130.3	12087.9	12094.5	12036.3	12105.7	11952.7	12016.9	12023.5	11919.5	12066.5	12017.5	11913.3	11997.9	11997.9
645.135	25601.5	1041.54	12322.1	12272.7	12116.3	12143.1	12133.7	12086.5	12048.3	12061.5	12026.9	12006.9	11953.7	11994.1	12012.1	11991.7	11899.7	11883.1	11883.1
645.363	25419.8	1042.5	12299.2	12119	12113.2	12064.4	12030.8	12033.4	12005.2	11970.8	11916.2	11966	11921.4	12007.2	11912.6	12010	11946.4	11880.8	11880.8
645.591	25402.6	1038.84	12286.6	12163.6	12127.4	12100	12033.6	12004.4	12034.6	11941	11985	11968.8	11982	11900.4	12009.8	11888.2	11920.6	11884.6	11884.6
645.819	25222.5	1053.44	12243.3	12075.5	12009.9	12056.9	11934.9	11913.3	11878.9	11963.3	11936.9	11897.7	11830.9	11822.9	11861.5	11802.9	11878.3	11854.9	11854.9
646.046	25037.3	1042.32	12179.2	11958.4	11907.2	11822	11872.2	11819.8	11786.6	11777	11811.4	11786.6	11707.4	11833.8	11774.2	11774.6	11757	11780.6	11780.6
646.274	24925.6	1035.4	12102.3	11851.4	11834.8	11869.8	11881.6	11775.8	11799.2	11790.6	11639.2	11693.6	11666.8	11748	11744.8	11733.2	11742.8	11716.6	11716.6
646.502	24779.3	1047.74	12087.1	11938.5	11818.3	11803.1	11767.5	11830.7	11759.3	11715.5	11666.1	11743.7	11761.3	11728.5	11693.9	11725.9	11688.3	11657.3	11657.3
646.73	24613.2	1039.82	11958.6	11857.2	11841.4	11686	11789.4	11713.6	11662.6	11617.6	11646	11573.8	11700.4	11581	11684.6	11592.2	11650.4	11602.8	11602.8
646.957	24477.1	1032.16	11915.2	11743.7	11700.3	11624.7	11603.5	11564.5	11687.5	11571.7	11527.9	11514.3	11564.7	11589.9	11552.1	11534.1	11578.3	11521.5	11521.5
647.185	24484.9	1030	11903.9	11717	11669.2	11710	11598.8	11593	11579.4	11584.4	11552	11589	11502.2	11576.4	11571	11486.4	11514.2	11574.2	11574.2
647.412	24297.8	1034	11785.4	11627.6	11569.4	11578	11407.4	11569.2	11530.2	11568	11499	11454.2	11484.4	11443.6	11445.6	11434.8	11364.6	11494.8	11494.8
647.64	24188.7	1041.4	11701.2	11521.1	11567.3	11486.9	11479.1	11405.7	11393.3	11458.5	11388.9	11396.3	11441.5	11367.9	11438.3	11381.9	11424.9	11372.3	11372.3
647.867	23831	1032.82	11541	11433.5	11353.3	11313.9	11359.3	11318.7	11307.9	11314.5	11246.1	11283.3	11226.7	11248.7	11261.7	11256.5	11215.3	11208.7	11208.7
648.094	23986.6	1029.76	11643.1	11513.1	11432.7	11394.9	11401.7	11365.7	11281.1	11309.5	11383.9	11298.5	11285.9	11356.5	11271.5	11363.3	11402.3	11223.3	11223.3
648.322	23678.1	1043.56	11506.8	11287.3	11268.9	11277.7	11299.5	11255.9	11170.5	11236.9	11199.5	11241.9	11127.3	11131.5	11169.7	11182.5	11205.3	11100.5	11100.5
648.549	23714.8	1050.22	11543.9	11308.1	11250.3	11232.5	11288.3	11289.5	11258.5	11208.9	11205.9	11256.5	11198.5	11203.3	11157.7	11277.5	11285.9	11172.7	11172.7
648.776	23442.7	1040.06	11417.9	11212	11217.8	11115	11122.2	11104	11200.6	11022.2	11122.4	11096	11056	11129.4	11091.6	11067.6	11105.4	11075.2	11075.2
649.003	23591	1036.68	11442.9	11305.1	11240.7	11285.3	11238.7	11152.9	11250.9	11186.3	11074.7	11105.9	11188.7	11084.3	11125.7	11042.5	11120.1	11145.3	11145.3
649.23	23427.9	1039.42	11405.9	11189.3	11202.3	11193.7	11129.5	11130.3	11210.9	11032.7	11122.1	11059.3	11046.9	11004.5	11057.3	10988.1	10954.3	10972.3	10972.3
649.457	23246.2	1036.42	11298.5	11104.4	11088.6	11069	11000.6	10956.4	11005.4	11016	11048.6	10993.2	11046	10918	10962.6	10940.2	10947.6	10985.8	10985.8
649.684	23046.4	1036.7	11168.7	11053.5	10987.7	10953.3	11018.7	10983.5	10896.3	10971.3	10888.7	10875.1	10889.5	10883.1	10925.5	10875.5	10865.7	10870.7	10870.7
649.911	22966.7	1040.12	11195.9	11089.1	10931.1	10926.3	10949.1	10968.1	10931.1	10938.5	10860.7	10898.9	10910.9	10895.5	10834.5	10858.1	10911.5	10845.5	10845.5
650.138	22664.5	1039.32	11023.6	10852.2	10882.4	10797	10740	10825.4	10691.4	10656.4	10720.8	10751.8	10761.8	10715.2	10739	10775.2	10713.4	10724.4	10724.4
650.365	22765.8	1031.24	11097.5	10946.4	10847	10945.3	10829.6	10771.6	10794.6	10870.2	10859.2	10787.2	10833.2	10828.8	10724.6	10791.6	10812.4	10787.4	10787.4
650.592	22492.7	1037.66	10988.3	10868.7	10804.9	10756.7	10782.1	10708.7	10701.5	10721.9	10671.7	10775.7	10692.3	10711.3	10684.9	10704.7	10710.5	10663.3	10663.3
650.819	22590.7	1033.4	11012.1	10806.9	10864.5	10719.7	10782.3	10756.9	10736.5	10770.5	10746.3	10724.5	10748.9	10768.3	10730.9	10670.9	10652.7	10632.3	10632.3
651.045	22379.7	1050.82	10917.3	10757.8	10716.2	10625.6	10706.6	10563	10608.4	10636.4	10669	10553.8	10635.2	10549	10524.4	10609.2	10495.4	10552.8	10552.8
651.272	22168.5	1053.26	10780.2	10637.5	10581.1	10530.9	10598.1	10512.9	10468.7	10479.7	10486.7	10488.7	10460.9	10476.7	10502.1	10422.9	10536.3	10481.1	10481.1
651.498	22167.7	1043.22	10750.7	10683.2	10592.8	10556.8	10529.8	10564.4	10483.2	10531	10448.2	10480	10470.6	10544.6	10461.4	10425.2	10437.4	10463	10463
651.725	22053.5	1045.9	10703.9	10619.4	10558.4	10464	10452	10543	10482.2	10516.8	10521.4	10455.2	10449.6	10486.6	10476.2	10408	10412.6	10468.6	10468.6
651.951	21820.5	1041.58	10643.7	10566.5	10464.1	10326.1	10450.3	10436.3	10399.7	10317.9	10404.7	10371.7	10425.5	10399.5	10410.3	10405.7	10348.5	10405.1	10405.1
652.178	21771.2	1030.16	10632.5	10569.5	10444.7	10478.9	10475.7	10400.7	10400.1	10329.5	10454.1	10394.1	10345.9	10340.5	10303.5	10343.5	10404.3	10356.3	10356.3
652.404	21604.3	1030.38	10520.1	10373.7	10398.1	10328.9	10283.5	10312.1	10343.1	10327.9	10349.5	10263.7	10241.3	10313.9	10328.1	10251.7	10268.7	10241.1	10241.1
652.63	21427.1	1041.42	10471.7	10274.5	10313.3	10220.1	10244.9	10243.3	10262.7	10283.9	10205.7	10224.3	10201.5	10205.5	10164.5	10232.1	10071.7	10140.1	10140.1
652.857	21300.9	1040.34	10404.5	10241.6	10274.2	10151.8	10231.4	10178.6	10211.8	10192.8	10218.8	10169.2	10167.6	10148.4	10126.8	10060.5	10153	10111	10111
653.083	21167.6	1039.88	10366.9	10156.9	10148.1	10191.3	10096.9	10085.9	10076.7	10111.3	10082.7	10007.3	10081.9	10110.7	10016.7	10025.9	10091.9	10045.7	10045.7
653.309	21054.8	1041.34	10332.8	10150.2	10167.4	10061.2	10042.2	10120	9996.62	10021.2	10073.8	10028.4	9985.62	10023.4	10009.2	9976.82	9932.22	9930.82	9930.82
653.535	20974.2	1047.46	10265.1	10155.1	10074.5	10026.9	10004.9	10068.5	9944.54	10016.4	9999.94	9948.74	9934.34	9942.54	9869.54	9941.74	9988.94	9948.74	9948.74
653.761	20785.7	1035.44	10227.4	10033.2	10022.2	9975.42	10020.6	9943.02	9945.02	9853.42	9993.02	9943.62	9957.02	9859.42	9908.42	9904.22	9876.62	9845.22	9845.22
653.987	20642	1043.04	10142.7	9973.52	9980.12	9918.12	9957.32	9918.52	9903.12	9897.32	9885.52	9900.92	9809.92	9923.52	9837.92	9831.72	9855.72	9776.12	9776.12
654.213	20615.2	1038.96	10095.3	9968.16	9969.56	9933.16	9966.96	9903.36	9875.16	9829.36	9869.56	9906.16	9852.36	9952.96	9828.16	9829.96	9811.76	9913.16	9913.16
654.439	20452.2	1041.24	10008.9	10007.9	9912.68	9895.28	9869.68	9733.88	9842.48	9845.08	9764.68	9756.08	9779.08	9812.88	9712.28	9809.48	9735.68	9803.48	9803.48
654.664	20253.1	1044.24	9977.61	9831.44	9817.94	9828.54	9683.74	9738.54	9676.74	9773.54	9756.34	9725.14	9705.94	9767.14	9702.74	9763.94	9667.14	9655.14	9655.14
654.89	20205.2	1037.5	9911.89	9799.42	9778.02	9733.62	9738.02	9669.62	9696.82	9690.22	9672.22	9685.02	9684.62	9607.42	9627.22	9691.22	9603.22	9641.22	9641.22
655.116	19999.9	1026.82	9852.81	9718.94	9632.34	9650.74	9654.74	9608.34	9574.34	9597.14	9643.34	9583.54	9637.54	9573.54	9586.14	9522.14	9527.54	9512.94	9512.94
655.342	19950.9	1033.86	9841.89	9703.36	9619.96	9614.76	9512.96	9571.76	9559.96	9584.96	9634.36	9559.36	9580.76	9603.76	9549.96	9577.36	9530.96	9595.56	9595.56
655.567	19763.2	1033.68	9693.31	9484.18	9531.38	9520.18	9512.18	9500.18	9493.18	9489.58	9520.78	9447.18	9441.18	9425.18	9418.38	9398.98	9451.78	9467.58	9467.58
655.793	19627	1031.72	9651.65	9494.45	9472.65	9488.65	9474.05	9427.25	9382.05	9370.05	9428.45	9381.25	9405.05	9406.25	9369.85	9377.25	9383.45	9397.85	9397.85
656.018	19463.1	1029.44	9531.35	9380.88	9417.48	9428.08	9355.88	9316.68	9335.88	9330.68	9287.28	9278.88	9376.48	9341.48	9353.28	9327.28	9338.48	9274.88	9274.88
656.244	19368.3	1036.24	9497.41	9419.28	9405.48	9283.68	9281.28	9279.48	9346.48	9276.68	9270.28	9237.28	9336.48	9280.68	9245.48	9299.08	9198.28	9228.08	9228.08
656.469	19193.5	1042.56	9409.15	9386.88	9315.08	9298.48	9218.28	9232.48	9207.68	9249.48	9237.48	9148.48	9217.48	9215.28	9169.48	9208.28	9234.88	9169.88	9169.88
656.694	19135	1054	9433.39	9257.12	9269.92	9270.12	9244.12	9270.92	9140.12	9190.72	9276.92	9168.52	9139.12	9230.52	9140.12	9242.52	9139.32	9212.52	9212.52
656.92	18995.9	1036.25	9393.32	9230.32	9213.12	9199.52	9186.92	9161.52	9207.92	9182.72	9157.12	9163.52	9074.32	9132.92	9095.12	9153.92	9132.72	9139.52	9139.52
657.145	18871.9	1039.14	9337.39	9163.86	9219.26	9119.26	9100.46	9094.06	9162.26	9121.06	9097.86	9036.66	9107.26	9069.46	9118.66	9014.46	9038.26	9158.06	9158.06
657.37	18798.5	1035.38	9286.72	9160.72	9164.32	9084.72	9152.12	9061.92	9094.52	9065.52	9047.12	9008.92	9074.92	9011.52	9033.32	8973.32	9065.72	9055.52	9055.52
657.595	18604.1	1032.68	9182.41	9150.21	8982.21	8987.41	9018.21	8995.61	9006.01	8953.61	9046.41	9037.61	8950.81	8931.81	8947.41	9000.61	9016.41	8920.61	8920.61
657.82	18563.5	1032.06	9161.28	9056.88	8990.68	8957.28	9028.28	8950.88	8950.08	8958.28	8978.88	8981.08	8935.48	8957.88	8932.28	8975.48	8963.68	8969.28	8969.28
658.045	18392.6	1035.04	9087.69	8935.16	8925.76	8894.96	8921.96	8819.16	8883.16	8792.56	8875.56	8896.56	8890.36	8812.36	8851.36	8902.36	8857.16	8861.56	8861.56
658.27	18340.8	1039.3	9045.41	8932.54	8877.14	8853.94	8853.94	8871.74	8844.34	8808.94	8843.34	8828.34	8844.34	8804.34	8798.54	8829.74	8770.34	8752.34	8752.34
658.495	18089.7	1040.82	8952.71	8807.84	8713.44	8749.64	8780.04	8798.24	8761.04	8718.04	8804.44	8714.24	8709.64	8771.04	8730.04	8739.64	8720.84	8709.24	8709.24
658.72	18043.5	1034.39	8907.33	8768.66	8749.06	8739.46	8752.26	8771.86	8754.06	8766.66	8766.66	8762.66	8721.06	8689.46	8688.66	8656.26	8697.46	8757.46	8757.46
658.945	17824.7	1035.68	8841.21	8733.94	8695.54	8675.74	8698.74	8721.34	8701.34	8653.74	8631.74	8672.54	8621.34	8621.54	8595.34	8595.94	8593.34	8660.14	8660.14
659.169	17766.2	1034.72	8796.5	8688.7	8701.1	8611.7	8645.7	8648.3	8640.3	8609.3	8577.9	8611.7	8567.7	8500.3	8604.1	8611.5	8532.9	8551.5	8551.5
659.394	17671.7	1030.76	8757.83	8630.5	8605.5	8595.5	8641.5	8569.3	8561.3	8548.3	8582.1	8533.5	8514.5	8545.9	8476.9	8533.9	8535.7	8502.1	8502.1
659.619	17597.4	1038.98	8654.07	8598.2	8581.8	8580.2	8529.6	8561	8533.2	8476.6	8497.6	8452.6	8515.6	8516.8	8476.6	8528.4	8470.4	8533.2	8533.2
659.843	17442	1050.78	8630.46	8557.26	8494.86	8509.46	8523.06	8526.06	8458.46	8460.06	8453.66	8456.06	8429.26	8455.86	8485.06	8420.46	8384.66	8480.06	8480.06
660.068	17208.3	1037.4	8537.23	8466.16	8404.16	8406.56	8413.96	8371.96	8351.76	8373.36	8365.36	8322.16	8337.76	8309.36	8328.56	8346.96	8364.16	8304.96	8304.96
660.292	17013.3	1040.72	8512.44	8413.04	8338.24	8337.84	8327.64	8339.44	8295.44	8282.64	8266.24	8244.64	8289.64	8235.04	8214.84	8333.84	8303.44	8231.84	8231.84
660.517	16986.2	1035.24	8446.6	8373.4	8355.4	8309.4	8205.2	8246.2	8240.8	8296.2	8299.4	8318.8	8176.5	8307	8164.2	8254.2	8264.8	8227.8	8227.8
660.741	16843.8	1042.34	8410.36	8369.56	8276.56	8259.96	8281.36	8236.16	8179.36	8172.96	8212.96	8239.76	8179.76	8214.76	8168.16	8175.16	8130.36	8140.36	8140.36
660.965	16800.1	1043.94	8366.87	8276.4	8192	8179	8179.2	8172	8197.2	8255.8	8171	8129.8	8128.6	8127.8	8153.6	8065.2	8023.8	8111.8	8111.8
661.19	16679.1	1043.3	8320.9	8252.1	8157.7	8195.7	8065.7	8132.9	8084.7	8081.5	8053.7	8053.7	8181.3	8105.3	8115.9	8096.9	8047.9	8119.1	8119.1
661.414	16494.2	1028.46	8213.83	8156.96	8085.76	8097.76	8016.16	8087.36	8007.56	8051.76	8016.56	7985.36	8046.56	7998.76	7990.96	7985.56	7933.56	7979.76	7979.76
661.638	16413.1	1038.73	8192.95	8123.68	8053.68	8046.08	8036.48	8021.48	8026.88	8013.88	8039.68	8025.08	7979.08	8006.68	7929.28	7990.88	7999.08	8010.08	8010.08
661.862	16282	1049.2	8121.01	8015.54	7988.34	8020.34	7998.14	7953.94	7963.54	8019.14	7998.54	7937.54	7869.34	7920.94	7898.34	7899.94	7950.54	7935.14	7935.14
662.086	16114.2	1033	8032.24	7951.84	7872.04	7923.24	7990.44	7851.84	7938.84	7900.04	7940.64	7932.04	7855.44	7851.84	7826.84	7821.64	7845.44	7895.24	7895.24
662.31	16094.3	1038.42	8046.87	7956.34	8013.34	7899.54	7936.74	7937.94	7952.14	7859.54	7883.74	7917.94	7924.14	7867.74	7814.74	7820.94	7898.74	7975.74	7975.74
662.534	16057	1036.08	8012.1	7928.9	7843.5	7865.7	7928.7	7875.7	7870.5	7809.9	7771.5	7864.1	7792.1	7841.9	7815.5	7835.1	7822.9	7804.1	7804.1
662.758	15886.4	1040.72	7942.54	7806.54	7814.34	7788.14	7819.74	7742.14	7768.74	7759.74	7751.94	7775.14	7667.34	7731.74	7727.14	7770.74	7741.54	7723.54	7723.54
662.982	15829.8	1034.02	7869.56	7800.36	7848.56	7739.56	7755.76	7718.96	7761.96	7634.16	7766.96	7703.96	7736.86	7697.16	7688.96	7720.16	7725.36	7699.36	7699.36
663.206	15745.8	1036.94	7875.64	7779.44	7804.24	7785.84	7694.24	7748.64	7744.84	7704.24	7696.64	7730.84	7717.04	7656.24	7635.84	7705.44	7679.64	7685.04	7685.04
663.429	15599.3	1041.4	7811.28	7713.28	7733.68	7714.08	7700.68	7578.88	7665.88	7564.28	7698.88	7660.68	7625.68	7617.28	7578.08	7598.48	7543.28	7573.68	7573.68
663.653	15454.7	1037.58	7711.62	7660.02	7634.62	7606.22	7621.42	7573.82	7515.42	7584.22	7558.02	7573.82	7516.22	7489.82	7505.62	7533.22	7512.42	7531.32	7531.32
663.877	15364.9	1037.99	7738.67	7574.3	7542.2	7542.4	7523.4	7555	7494.2	7543.6	7517	7512.2	7524.2	7541	7451.8	7467.2	7495.6	7523	7523
664.1	15215.9	1039.28	7604.47	7484.14	7508.54	7407.74	7443.74	7448.34	7423.54	7427.94	7452.94	7409.54	7400.94	7364.54	7372.94	7355.94	7409.74	7377.54	7377.54
664.324	15168.8	1031.52	7582.73	7512	7485.4	7440.8	7444.2	7411.8	7352.8	7403.2	7430.8	7397.2	7424.6	7375.8	7354.6	7358.4	7417	7353.4	7353.4
664.547	14980.7	1033.98	7500.44	7419.44	7353.04	7369.04	7365.24	7322.44	7303.24	7298.24	7345.04	7335.04	7282.64	7301.44	7321.04	7296.44	7309.44	7275.44	7275.44
664.771	14907.8	1046.27	7466.73	7396.4	7340.6	7323.6	7412.8	7333.6	7347.4	7301.6	7305.2	7335	7333.8	7290.4	7296.8	7335.6	7296.6	7250.8	7250.8
664.994	14830.7	1043.08	7472.27	7391.6	7318.8	7283.8	7305.4	7345.8	7344.8	7306.4	7278.2	7320.6	7271.4	7251.4	7232.2	7230	7241.8	7238.8	7238.8
665.217	14674.6	1043.1	7389.39	7257.12	7265.92	7244.52	7219.52	7277.72	7239.52	7222.12	7161.72	7219.52	7175.12	7144.32	7188.32	7161.52	7208.12	7201.32	7201.32
665.44	14520.7	1041.68	7333.71	7232.04	7187.64	7159.04	7147.04	7207.84	7182.04	7192.24	7165.04	7144.64	7143.14	7108.24	7127.44	7088.84	7152.84	7101.64	7101.64
665.664	14459.6	1048.92	7264.14	7153.54	7133.54	7172.94	7121.54	7151.14	7138.34	7118.54	7130.74	7054.94	7079.34	7123.34	7182.74	7102.34	7059.34	7079.94	7079.94
665.887	14376.3	1041.36	7238.35	7099.28	7177.08	7098.28	7103.28	7135.48	7085.68	7055.88	7065.48	7084.68	7055.28	7101.48	7074.68	7062.48	7114.28	7007.48	7007.48
666.11	14246.5	1036.2	7159.43	7107.7	7043.1	7024.3	7002.5	7038.9	6980.1	6984.5	7003.3	7010.7	6898.9	7029.7	6966.7	6955.9	6931.7	6939.3	6939.3
666.333	14090.5	1038.62	7103.53	7009.06	7037.06	6977.86	6985.86	6979.86	6968.66	6944.86	6918.86	6962.66	6905.46	6998.06	6902.26	6900.86	6900.06	6879.86	6879.86
666.556	14016.7	1031.72	7039.23	6978.3	6972.3	6915.9	6937.1	6903.1	6891.1	6960.5	6952.3	6909.9	6900.7	6924.9	6854.5	6931.3	6917.9	6867.1	6867.1
666.779	13904.9	1029.92	6989.58	6977.58	6903.58	6955.38	6932.18	6846.18	6856.58	6890.18	6842.98	6887.38	6908.38	6868.98	6867.58	6849.38	6843.78	6829.58	6829.58
667.002	13848.8	1036.36	6978.22	6915.82	6819.42	6907.22	6859.62	6832.42	6791.42	6804.82	6797.82	6831.62	6808.62	6834.02	6816.62	6815.42	6793.02	6799.02	6799.02
667.224	13697.7	1041.08	6925.7	6829.7	6822.3	6784.3	6713.1	6738.1	6763.9	6713.3	6751.5	6709.3	6772.5	6816.1	6750.9	6765.5	6741.5	6692.5	6692.5
667.447	13615.8	1041.7	6856.62	6808.52	6721.52	6722.32	6725.72	6680.72	6669.92	6756.72	6731.72	6739.32	6695.32	6680.12	6738.92	6666.72	6713.72	6698.12	6698.12
667.67	13583.5	1041	6856.48	6807.28	6728.48	6813.08	6662.68	6748.28	6639.88	6670.08	6650.28	6678.88	6634.48	6631.28	6711.88	6673.08	6655.88	6642.68	6642.68
667.893	13384.1	1030.7	6717.37	6658.04	6696.84	6689.84	6620.64	6605.24	6610.04	6627.04	6670.24	6567.24	6615.04	6599.24	6616.84	6584.84	6581.64	6591.04	6591.04
668.115	13366.3	1038.37	6737.97	6697.9	6695.3	6694.5	6625.7	6664.3	6640.3	6690.9	6606.5	6630.3	6619.9	6568.1	6538.5	6558.1	6609.1	6586.9	6586.9
668.338	13228.4	1033.98	6666.78	6581.78	6607.78	6581.38	6568.38	6580.18	6570.38	6458.38	6531.78	6527.38	6508.18	6554.18	6536.18	6549.38	6534.58	6564.78	6564.78
668.56	13142.1	1035.94	6625.15	6547.62	6600.22	6565.62	6492.62	6518.82	6485.42	6504.22	6521.82	6495.42	6525.02	6454.42	6486.42	6490.22	6550.22	6521.02	6521.02
668.783	13021.3	1042.56	6634.73	6573.06	6514.06	6494.86	6527.66	6435.46	6433.66	6464.66	6457.06	6461.06	6459.86	6463.26	6440.46	6421.06	6492.86	6456.26	6456.26
669.005	12984.3	1042.88	6616.2	6464.73	6501.93	6523.93	6484.33	6472.93	6442.13	6483.13	6455.33	6485.73	6460.53	6436.13	6435.93	6419.13	6463.73	6395.13	6395.13
669.227	12783.2	1034.12	6492.23	6477.76	6332.36	6393.56	6412.76	6364.16	6367.16	6398.76	6358.16	6365.56	6381.56	6358.76	6373.96	6292.36	6421.96	6329.16	6329.16
669.45	12777.4	1040.8	6488.75	6494.68	6421.28	6395.68	6368.68	6408.28	6356.28	6363.48	6335.28	6345.48	6352.48	6337.28	6382.68	6359.68	6383.48	6303.48	6303.48
669.672	12644.3	1037.7	6443.69	6360.02	6287.22	6323.02	6353.22	6387.02	6296.22	6276.42	6272.42	6291.82	6251.22	6301.42	6305.82	6247.22	6330.62	6284.02	6284.02
669.894	12508.3	1039.3	6353.69	6278.36	6285.96	6335.16	6266.56	6268.76	6257.96	6194.76	6270.76	6266.36	6241.76	6204.56	6259.96	6189.16	6226.76	6231.96	6231.96
670.116	12463.5	1039.78	6340.39	6294.52	6297.32	6256.72	6197.52	6278.92	6221.72	6285.32	6284.52	6216.52	6222.72	6262.52	6249.92	6171.12	6284.72	6207.72	6207.72
670.338	12397.7	1037.46	6340.11	6265.84	6299.04	6221.04	6200.04	6182.24	6187.44	6223.44	6170.44	6209.84	6143.64	6182.64	6183.44	6210.24	6241.44	6181.84	6181.84
670.56	12248.9	1037	6236.35	6177.28	6162.78	6158.48	6122.28	6156.28	6136.28	6134.28	6120.28	6147.28	6108.88	6070.08	6097.68	6112.88	6133.28	6081.48	6081.48
670.782	12170.1	1039.66	6188.27	6158	6122.2	6116.8	6102.4	6139.8	6060	6080.2	6025.2	6075.2	6048	5995.8	6117.8	6078.4	6066.2	6053.6	6053.6
671.004	12097.6	1034.16	6136.37	6126.4	6057.4	6109.6	6060	6040.8	6029.2	6068.6	6019	5969.2	6021.2	6016.4	6043.4	5942.2	5962.2	5971.8	5971.8
671.226	12059.1	1034.88	6150.57	6100.04	6045.64	6058.64	6025.24	6042.84	5996.04	6017.64	5992.44	5954.44	6013.24	5981.64	6000.44	5990.84	5967.04	5974.04	5974.04
671.448	11939	1043.12	6040.59	5973.66	5980.26	5920.86	5953.06	5912.06	5941.66	5970.26	5944.46	5929.86	5977.06	5886.06	5896.26	5934.46	5874.66	5868.06	5868.06
671.67	11784.2	1036.39	5994.7	5950.1	5939.9	5877.7	5802.9	5928.3	5825.9	5856.7	5879.9	5840.9	5897.9	5867.9	5844.1	5856.9	5878.7	5850.9	5850.9
671.891	11696.1	1036.2	5975.62	5930.75	5920.55	5863.75	5874.35	5860.95	5811.35	5890.75	5791.15	5817.95	5825.75	5804.15	5819.55	5859.75	5827.15	5843.75	5843.75
672.113	11618.6	1029.12	5928.77	5863.84	5838.84	5804.64	5854.44	5803.64	5845.24	5806.04	5782.64	5778.24	5771.44	5811.24	5780.04	5823.64	5813.44	5826.84	5826.84
672.334	11520.2	1037.8	5901.91	5830.18	5818.38	5806.98	5830.38	5755.18	5829.58	5792.58	5744.58	5771.98	5742.18	5753.38	5783.58	5774.18	5698.98	5747.38	5747.38
672.556	11461.5	1037.96	5862.09	5816.36	5806.16	5742.76	5759.96	5734.36	5734.76	5774.76	5750.16	5745.36	5780.56	5735.76	5736.36	5710.56	5705.96	5743.96	5743.96
672.778	11357.5	1038.3	5815.81	5702.74	5766.34	5723.74	5707.94	5679.74	5733.74	5691.34	5706.34	5657.14	5674.94	5673.14	5626.94	5671.74	5679.14	5664.54	5664.54
672.999	11238.6	1040.8	5719.07	5693.54	5695.34	5642.54	5610.34	5627.54	5667.94	5655.14	5595.74	5680.94	5648.74	5611.14	5591.14	5621.34	5601.94	5608.14	5608.14
673.22	11199.3	1038.98	5695.77	5665.9	5623.9	5610.5	5583.5	5618.7	5619.7	5548.9	5582.3	5596.9	5567.9	5577.3	5598.7	5606.5	5599.7	5552.7	5552.7
673.442	11054.5	1047.2	5648.14	5549.94	5525.94	5517.94	5499.54	5543.94	5516.54	5483.74	5517.74	5523.94	5497.34	5510.54	5511.54	5507.74	5532.34	5524.94	5524.94
673.663	11057.8	1044.04	5634.07	5543.8	5591.8	5524.8	5540.8	5535.2	5507.8	5541	5519.6	5540.4	5488.6	5491.8	5538.6	5501	5499	5513	5513
673.884	10976.3	1036	5606.15	5542.22	5521.42	5483.22	5535.42	5510.22	5462.02	5502.82	5481.02	5452.42	5487.02	5501.82	5485.62	5466.62	5452.22	5463.02	5463.02
674.105	10880.2	1038.84	5563.19	5549.52	5498.12	5456.72	5420.72	5430.32	5436.52	5467.92	5455.32	5432.32	5408.32	5425.72	5489.32	5430.92	5400.52	5406.92	5406.92
674.326	10762.7	1031.56	5513.32	5417.52	5444.32	5356.32	5382.52	5440.32	5363.92	5407.72	5414.72	5442.32	5447.12	5366.72	5416.72	5419.12	5360.32	5375.52	5375.52
674.547	10733.2	1035.7	5521.21	5459.94	5430.14	5433.94	5423.14	5375.74	5425.74	5400.54	5361.34	5457.74	5380.94	5366.34	5406.54	5377.34	5337.34	5400.54	5400.54
674.768	10567.4	1033.9	5422.68	5367.68	5295.68	5377.48	5370.08	5371.48	5345.28	5308.48	5329.48	5346.68	5325.88	5313.48	5317.08	5292.48	5294.68	5324.48	5324.48
674.989	10501.9	1034.22	5395.73	5315.4	5316.8	5283	5299	5248.2	5275.6	5283.4	5293.8	5246.2	5264.4	5273.2	5231.4	5275	5276.4	5221.4	5221.4
675.21	10445.8	1046.06	5366.61	5336.88	5283.68	5300.28	5281.58	5258.28	5221.68	5204.08	5257.48	5224.28	5244.88	5225.68	5243.28	5266.48	5259.88	5282.48	5282.48
675.431	10339.2	1040.36	5310.4	5229	5283.6	5234.6	5277.2	5213.8	5202.8	5176.6	5225.8	5177	5145.4	5208	5195	5145.2	5233.2	5178.6	5178.6
675.652	10351.9	1038.08	5294.66	5286.46	5239.46	5258.46	5230.86	5208.86	5194.46	5247.86	5153.46	5179.86	5167.86	5195.46	5191.66	5168.46	5206.06	5204.86	5204.86
675.873	10132.9	1040.82	5212.39	5198.66	5153.26	5134.66	5145.86	5109.26	5153.06	5076.86	5100.86	5086.86	5109.26	5116.06	5102.86	5012.66	5113.06	5104.86	5104.86
676.093	10126.1	1031.84	5211.17	5170.3	5123.7	5113.1	5130.9	5145.5	5112.3	5113.9	5112.3	5071.5	5105.9	5071.1	5045.3	5093.3	5100.9	5044.9	5044.9
676.314	10037.8	1029.48	5174.64	5081.17	5053.97	5066.77	5081.37	5091.57	5054.97	5060.17	5072.77	5056.77	5064.57	5057.97	5034.37	5052.17	5078.97	5060.17	5060.17
676.535	9968.14	1043.26	5125.05	5081.12	5070.72	5060.92	5022.32	5042.52	5020.12	5032.12	4972.72	5058.32	5031.52	5001.12	5046.72	5006.92	4999.72	4970.52	4970.52
676.755	9900.67	1039.78	5099.44	5034.24	5010.24	5026.24	5018.44	4994.04	5006.84	4974.64	4979.84	4993.24	5006.64	4947.64	4970.24	4985.24	4984.04	4934.84	4934.84
676.975	9863.75	1042.08	5078.97	5026.84	5002.64	4983.64	4991.44	4996.44	4997.64	4981.64	4960.64	4941.84	4937.24	4950.84	4944.24	4943.04	4966.04	4951.44	4951.44
677.196	9761.71	1037.38	5041.86	5001.06	4966.26	5039.46	4956.26	4922.86	4995.46	4886.66	4901.06	4948.66	4960.66	4916.46	4951.66	4937.26	4900.46	4935.26	4935.26
677.416	9659.15	1044.14	4993.66	4917.66	4863.46	4859.26	4893.46	4871.06	4879.26	4876.66	4864.06	4855.26	4854.46	4872.66	4846.46	4836.46	4826.46	4839.46	4839.46
677.637	9559.51	1042.5	4925.22	4915.09	4848.29	4855.89	4827.09	4829.09	4840.89	4865.69	4825.69	4840.49	4853.29	4885.89	4828.29	4823.89	4867.29	4830.69	4830.69
677.857	9554.23	1038.54	4901.33	4822.26	4867.46	4823.26	4854.06	4855.66	4834.46	4856.06	4821.46	4796.66	4819.06	4783.26	4788.26	4792.06	4840.26	4829.66	4829.66
678.077	9470.77	1035.96	4871.6	4841.2	4810.4	4751.2	4832.6	4807.6	4786.8	4792.4	4770	4810.6	4762.4	4772	4779.2	4795.6	4768.4	4778.6	4778.6
678.297	9382.74	1036.52	4850.55	4771.38	4792.18	4718.38	4735.18	4727.58	4727.78	4750.18	4706.38	4766.18	4754.38	4760.78	4726.18	4774.58	4712.38	4753.38	4753.38
678.517	9324.7	1033.16	4794.29	4734.02	4757.22	4693.62	4714.02	4711.42	4680.62	4731.02	4707.42	4677.22	4730.02	4662.62	4701.02	4712.62	4718.42	4640.82	4640.82
678.737	9266.43	1042.64	4748.48	4716.28	4706.08	4684.08	4686.48	4707.08	4679.28	4653.28	4682.88	4695.48	4655.48	4655.08	4704.28	4646.28	4624.08	4675.08	4675.08
678.957	9180.73	1047.18	4733.89	4672.42	4657.42	4651.02	4665.22	4670.82	4640.42	4612.22	4670.82	4595.22	4613.62	4585.62	4641.02	4590.62	4549.62	4578.42	4578.42
679.177	9093.62	1038.2	4686.23	4573.16	4644.96	4630.16	4623.96	4542.56	4565.76	4586.96	4561.76	4594.36	4607.56	4599.76	4600.96	4597.76	4594.56	4560.16	4560.16
679.397	9010.73	1040.36	4671.24	4559.57	4626.17	4589.17	4544.37	4557.37	4532.57	4574.77	4596.37	4576.97	4573.57	4555.97	4587.77	4555.77	4513.97	4594.17	4594.17
679.617	8925.56	1040.48	4593.55	4540.82	4506.82	4573.22	4500.62	4498.22	4588.82	4560.62	4541.02	4522.02	4530.62	4550.62	4509.82	4473.02	4506.22	4493.62	4493.62
679.837	8894.81	1031.44	4570.58	4544.78	4492.98	4542.98	4542.58	4546.98	4514.98	4502.98	4500.38	4457.98	4481.58	4458.78	4502.38	4496.58	4493.78	4509.18	4509.18
680.056	8742.62	1037.38	4481.11	4462.38	4444.78	4458.18	4480.58	4440.38	4429.78	4451.58	4434.98	4425.58	4398.78	4424.18	4397.98	4391.18	4421.58	4409.98	4409.98
680.276	8689.98	1035.52	4477.1	4455.3	4424.9	4468.7	4430.7	4436.9	4386.5	4463.5	4455.1	4385.5	4375.3	4405.1	4399.1	4386.1	4411.9	4427.3	4427.3
680.496	8654.25	1032.28	4469.21	4430.34	4406.44	4402.34	4396.14	4360.34	4422.74	4411.94	4367.94	4356.94	4376.54	4372.14	4355.74	4393.34	4361.54	4390.14	4390.14
680.715	8559.55	1033.58	4424.19	4396.92	4381.32	4362.72	4378.72	4396.12	4356.32	4301.52	4366.12	4361.32	4361.52	4393.92	4357.52	4300.72	4358.72	4370.32	4370.32
680.935	8523.44	1040.5	4425.71	4426.38	4329.98	4406.58	4392.98	4291.38	4367.38	4327.18	4326.98	4321.78	4325.98	4327.98	4285.38	4294.38	4369.78	4348.98	4348.98
681.154	8405.37	1029.26	4355.11	4325.38	4340.18	4297.18	4310.98	4280.98	4341.98	4283.98	4277.78	4288.38	4300.58	4284.38	4262.38	4289.78	4371.78	4258.58	4258.58
681.374	8368.96	1042.98	4337.39	4300.66	4283.86	4245.06	4283.26	4236.26	4247.06	4247.66	4285.66	4276.06	4193.86	4246.66	4238.06	4235.26	4268.66	4243.66	4243.66
681.593	8301.9	1041.3	4309.62	4287.42	4225.02	4255.42	4201.82	4215.92	4211.42	4180.62	4173.82	4223.42	4216.42	4193.42	4222.42	4175.02	4214.42	4211.22	4211.22
681.812	8237.25	1037.06	4277.71	4249.58	4208.18	4224.78	4193.98	4189.78	4166.18	4213.58	4170.98	4195.18	4172.78	4214.58	4161.58	4175.58	4221.98	4197.18	4197.18
682.031	8147.83	1039.52	4188.52	4239.92	4225.32	4194.52	4159.92	4161.12	4194.52	4159.92	4091.52	4170.12	4140.92	4155.52	4153.72	4180.32	4156.32	4143.32	4143.32
682.251	8110.2	1032.4	4152.77	4101.1	4167.7	4104.7	4133.9	4124.5	4132.7	4142.1	4134.9	4152.9	4117.7	4113.3	4106.5	4093.7	4100.7	4117.1	4117.1
682.47	8054.68	1039.92	4165.66	4103.66	4106.46	4068.26	4110.66	4109.66	4070.46	4109.86	4077.26	4065.06	4074.06	4078.86	4058.86	4066.06	4114.06	4091.26	4091.26
682.689	8004.69	1041.66	4144.51	4139.44	4092.64	4111.64	4040.24	4063.84	4048.04	4041.64	4072.84	4053.04	4089.24	4048.84	4063.44	4055.24	4125.84	4081.04	4081.04
682.908	7880.98	1037.84	4088.1	4051.9	4039.5	4049.9	4008.3	4047.9	3995.7	4080.1	4033.3	4009.9	3980.7	3958.3	4001.5	4035.5	3983.1	3972.1	3972.1
683.127	7877.15	1040.06	4080.13	4015.4	4017.4	4058.2	4058.2	4034	4046.6	4019.8	4045.8	4019.2	3975	3998.6	3997.4	4034.4	3977	3937.2	3937.2
683.346	7812.75	1042.6	4075.87	4051.54	3996.34	3963.34	3968.54	3981.34	3973.34	3951.34	3959.74	3900.94	3995.54	3965.54	4026.74	3956.34	3964.54	3966.54	3966.54
683.565	7762.4	1041.9	4029.76	3988.16	3978.76	3983.76	3971.96	4003.16	3953.96	4013.36	3953.36	3951.16	3931.56	3901.96	3959.16	3915.36	3943.16	3917.76	3917.76
683.783	7642	1045.36	3966.96	3965.56	3975.76	3936.36	3913.56	3918.56	3917.36	3919.16	3928.36	3881.76	3907.76	3925.36	3928.56	3917.76	3898.56	3878.56	3878.56
684.002	7583.34	1038.96	3954.27	3917.8	3918.4	3911.6	3881.4	3882.8	3933.8	3836.4	3862	3874.8	3847.4	3913.6	3919	3899.8	3924	3892.2	3892.2
684.221	7500.61	1039.14	3930.93	3845.06	3914.26	3858.26	3861.66	3874.06	3869.66	3828.86	3863.46	3835.66	3824.86	3861.46	3847.26	3856.86	3854.46	3839.26	3839.26
684.439	7464.19	1029.08	3901.13	3854.5	3827.5	3833.1	3872.1	3837.9	3815.3	3842.9	3800.5	3807.5	3814.5	3767.9	3880.7	3804.3	3810.9	3770.3	3770.3
684.658	7446.35	1047.64	3905.43	3857.1	3788.3	3812.7	3794.5	3773.1	3839.3	3837.9	3779.9	3787.7	3833.1	3857.7	3795.5	3816.7	3786.3	3817.7	3817.7
684.877	7354.01	1038.54	3843.95	3778.42	3805.82	3789.82	3779.82	3764.82	3752.02	3812.82	3727.62	3770.82	3735.02	3749.42	3758.82	3752.22	3741.42	3729.22	3729.22
685.095	7267.18	1050.49	3812.29	3801.42	3780.82	3785.42	3758.82	3712.82	3735.22	3737.22	3757.62	3729.62	3723.82	3726.62	3755.82	3685.02	3760.22	3725.82	3725.82
685.314	7254.18	1035.36	3772.67	3752.14	3725.14	3766.34	3754.94	3722.74	3725.14	3715.74	3720.74	3657.54	3698.14	3711.14	3678.34	3723.34	3663.54	3728.54	3728.54
685.532	7163.94	1038.62	3733.59	3691.72	3733.72	3698.92	3716.12	3650.32	3674.32	3700.92	3703.92	3683.72	3665.52	3667.12	3707.72	3646.12	3691.12	3679.12	3679.12
685.75	7108.26	1037.6	3699.41	3726.94	3615.74	3700.34	3689.54	3627.74	3617.54	3664.14	3740.94	3666.74	3689.34	3638.14	3658.14	3670.74	3661.74	3652.14	3652.14
685.969	7018.38	1045.2	3677.83	3653.36	3610.16	3663.96	3674.76	3643.56	3652.16	3614.16	3642.16	3667.36	3588.96	3569.76	3647.16	3624.56	3619.36	3619.96	3619.96
686.187	7028.14	1039.96	3680.15	3702.42	3652.02	3621.42	3651.62	3594.62	3594.82	3629.02	3634.42	3646.02	3621.22	3597.42	3620.42	3587.22	3608.22	3597.62	3597.62
686.405	6937.99	1042.08	3614.71	3621.64	3592.04	3564.84	3633.04	3570.24	3565.44	3576.64	3590.64	3608.84	3560.04	3525.64	3548.44	3598.84	3597.64	3557.24	3557.24
686.623	6854.34	1035.02	3622.97	3614.44	3581.84	3551.64	3533.24	3551.24	3551.64	3518.04	3545.84	3575.24	3538.24	3500.24	3547.04	3574.04	3567.44	3551.64	3551.64
686.841	6817.46	1043.76	3555.5	3571.5	3546.1	3543.1	3541.7	3530.7	3526.3	3510.5	3510.3	3480.5	3537.3	3467.3	3505.1	3479.5	3522.7	3463.3	3463.3
687.059	6749.65	1038.9	3560.8	3544.8	3506.8	3493.4	3527	3488.4	3480.2	3525.6	3508.8	3457	3472	3477.6	3482.2	3491.8	3524.2	3516.4	3516.4
687.277	6706.43	1034.08	3529	3538.87	3489.67	3480.47	3487.07	3425.47	3477.07	3494.67	3469.47	3457.87	3474.67	3498.07	3491.87	3480.07	3473.67	3454.87	3454.87
687.495	6647.85	1040.66	3500.97	3492.24	3458.24	3483.44	3406.24	3493.24	3438.04	3412.64	3446.44	3469.44	3419.64	3435.44	3426.84	3426.44	3381.64	3449.84	3449.84
687.713	6600.43	1038.37	3482.05	3450.92	3411.72	3407.72	3441.52	3447.32	3445.72	3434.72	3404.92	3439.12	3391.52	3428.52	3421.52	3367.92	3391.52	3437.92	3437.92
687.931	6523.21	1044.3	3435.39	3369.52	3423.12	3401.92	3397.12	3399.92	3396.32	3391.52	3400.92	3411.72	3365.72	3440.12	3406.12	3392.72	3392.52	3389.52	3389.52
688.148	6484.01	1040.78	3402.39	3425.06	3404.46	3404.86	3339.06	3392.86	3326.86	3376.66	3384.86	3399.86	3357.26	3348.06	3362.86	3329.06	3381.46	3358.26	3358.26
688.366	6446.71	1034.2	3402.3	3375.7	3330.1	3333.5	3343.9	3361.7	3316.5	3316.9	3307.7	3381.5	3361.3	3279.1	3350.3	3356.3	3333.7	3333.9	3333.9
688.584	6376.78	1031.46	3371.89	3363.22	3322.22	3340.22	3315.62	3311.82	3302.42	3296.82	3273.82	3284.82	3289.22	3338.42	3318.22	3255.22	3346.22	3314.42	3314.42
688.801	6334.58	1039.66	3371.95	3351.88	3316.88	3290.08	3314.08	3286.88	3264.08	3309.88	3287.88	3291.28	3267.48	3289.68	3284.88	3273.48	3239.48	3293.88	3293.88
689.019	6268.1	1042.96	3328.97	3301.64	3296.64	3300.44	3263.84	3270.44	3282.24	3295.84	3253.64	3275.44	3252.84	3235.04	3269.44	3283.64	3221.24	3290.24	3290.24
689.236	6256.48	1038.58	3311.49	3291.62	3295.42	3308.22	3292.02	3269.42	3252.82	3243.02	3241.22	3268.62	3266.22	3226.22	3215.62	3222.62	3232.22	3228.02	3228.02
689.454	6180.12	1036.8	3281.76	3255.16	3250.96	3212.36	3228.56	3266.16	3236.56	3191.36	3215.36	3262.16	3170.36	3221.76	3179.76	3189.56	3172.36	3191.16	3191.16
689.671	6147.26	1043.36	3253.46	3224.46	3217.66	3241.66	3163.86	3207.86	3191.06	3223.26	3213.86	3259.26	3193.86	3223.06	3195.86	3185.66	3240.66	3224.46	3224.46
689.888	6130.58	1042.9	3238.95	3179.48	3199.88	3186.88	3164.28	3170.48	3167.88	3178.88	3175.08	3159.68	3159.08	3140.88	3205.88	3168.08	3158.48	3151.68	3151.68
690.105	6023.69	1034.42	3180.53	3184.6	3180.4	3171	3142.2	3154.4	3165	3184.2	3113.8	3157.4	3131.6	3150.6	3149.8	3102.4	3123.6	3155	3155
690.323	5967.37	1042.07	3146.88	3130.28	3124.08	3125.48	3095.68	3097.48	3128.88	3129.08	3090.88	3085.48	3061.08	3079.88	3089.28	3106.48	3128.08	3091.48	3091.48
690.54	5941.45	1036.32	3135.32	3081.42	3101.82	3088.82	3095.62	3053.42	3104.22	3079.42	3109.62	3092.22	3094.22	3096.22	3060.82	3066.82	3062.02	3059.22	3059.22
690.757	5887.48	1029.22	3131.79	3110.86	3044.06	3039.26	3071.26	3052.86	3042.86	3091.46	3104.66	3043.46	3063.26	3100.86	3038.46	3059.66	3082.66	3021.46	3021.46
690.974	5859.25	1034.34	3097.97	3096.9	3073.5	3043.5	3064.7	3090.3	3045.9	3040.7	3036.9	3076.1	3081.7	3072.1	3013.1	3061.7	3051.9	3036.3	3036.3
691.191	5788.74	1040.4	3087.3	3046.63	3072.23	3026.63	3029.03	3012.03	2995.23	3050.63	2969.23	3008.83	2973.43	3014.23	2983.83	3050.03	3002.43	3023.83	3023.83
691.408	5730.55	1040.58	3049.77	3010.5	3043.5	2999.1	3052.3	3035.9	2974.1	3028.7	2969.7	2972.7	2983.5	2972.3	2975.3	2993.7	2971.5	3005.9	3005.9
691.625	5667.49	1037.24	3044.81	2970.48	2996.08	2987.68	3024.68	2969.48	2971.48	2950.68	2954.68	2952.68	2951.08	2971.48	2972.08	2952.28	2987.08	2987.48	2987.48
691.842	5633.63	1032.24	3015.45	2958.32	2932.32	2960.72	2961.92	2943.92	2958.72	2975.12	2939.72	2975.12	2943.52	2952.12	2939.32	2932.12	2989.32	2949.72	2949.72
692.058	5575.98	1038.88	2954.79	2931.66	2959.46	2908.26	2968.86	2896.46	2918.66	2942.66	2961.46	2924.06	2900.06	2945.46	2912.66	2919.06	2955.46	2940.06	2940.06
692.275	5546.93	1031.64	2971.66	2964.26	2928.06	2956.66	2958.86	2963.66	2926.06	2915.86	2935.16	2920.66	2922.46	2920.16	2916.86	2919.26	2919.26	2924.66	2924.66
692.492	5482.35	1033.44	2925.84	2899.24	2915.44	2897.44	2927.64	2922.44	2914.64	2871.84	2908.44	2857.24	2894.44	2913.44	2911.64	2880.84	2851.64	2903.44	2903.44
692.708	5417.94	1042.14	2898.17	2879.1	2867.1	2894.7	2876.1	2836.3	2835.7	2844.5	2865.5	2884.3	2840.5	2866.1	2848.9	2841.3	2833.3	2880.3	2880.3
692.925	5379.18	1040.18	2909.51	2884.18	2845.18	2891.58	2821.38	2830.78	2839.18	2819.78	2872.78	2870.78	2845.18	2863.98	2841.78	2834.98	2811.58	2821.38	2821.38
693.141	5346.81	1043	2876.76	2828.16	2849.16	2812.76	2817.36	2830.36	2839.36	2818.36	2852.56	2811.36	2840.56	2835.76	2817.36	2785.16	2844.16	2821.56	2821.56
693.358	5318.1	1033.9	2840.74	2855.54	2820.94	2833.14	2793.74	2804.34	2829.54	2847.54	2777.14	2803.54	2846.34	2756.74	2812.54	2763.34	2829.14	2753.54	2753.54
693.574	5275.68	1036.24	2829.84	2810.04	2782.44	2774.84	2801.84	2751.64	2768.44	2783.64	2734.24	2752.24	2803.24	2760.64	2765.84	2756.24	2760.44	2731.24	2731.24
693.791	5243.77	1035.64	2796.37	2771.1	2801.9	2761.1	2785.5	2739.5	2761.7	2813.9	2748.9	2769.1	2789.7	2752.9	2771.5	2773.9	2764.3	2786.1	2786.1
694.007	5160.37	1033.16	2764.77	2751.3	2719.9	2724.5	2717.3	2735.7	2725.7	2760.9	2711.9	2708.5	2752.9	2718.1	2689.9	2726.3	2708.3	2717.3	2717.3
694.223	5124	1032.56	2733.83	2740.56	2743.36	2765.96	2698.96	2695.16	2697.96	2703.76	2700.36	2749.76	2699.76	2716.76	2709.76	2685.96	2706.76	2673.56	2673.56
694.439	5088.45	1032.14	2738.94	2693.74	2688.94	2676.74	2709.14	2689.94	2709.74	2675.34	2678.14	2687.54	2727.34	2668.34	2657.54	2679.94	2715.74	2653.34	2653.34
694.655	5060.32	1035.12	2708.5	2727.7	2679.1	2687.7	2680.5	2664.9	2647.7	2654.3	2671.9	2665.3	2671.5	2662.3	2664.7	2705.7	2674.9	2639.5	2639.5
694.872	5003.28	1033.96	2719.33	2694.2	2648	2671.8	2651.6	2682.8	2635.8	2668	2681.4	2652	2646.8	2657	2694.2	2657	2686.8	2662.6	2662.6
695.088	4962.88	1034.74	2677.72	2662.72	2635.32	2591.72	2639.72	2597.52	2619.92	2645.92	2658.92	2590.72	2606.52	2662.12	2581.52	2628.92	2612.12	2631.12	2631.12
695.304	4952.77	1038.28	2650.49	2580.96	2648.36	2633.76	2643.76	2632.96	2653.36	2621.36	2642.16	2559.96	2601.16	2627.56	2600.96	2626.76	2598.16	2619.76	2619.76
695.519	4878.22	1045.68	2630.13	2616.6	2585.6	2571.2	2615.8	2550	2612	2607	2620.8	2607.6	2613.2	2584	2594.4	2616.4	2625.2	2575.8	2575.8
695.735	4851.82	1043.72	2610.17	2591.9	2611.5	2601.7	2598.1	2581.5	2565.3	2605.9	2533.9	2576.1	2561.5	2587.5	2534.7	2582.5	2563.7	2552.9	2552.9
695.951	4813.14	1046.68	2572.67	2555.94	2578.54	2603.14	2564.74	2572.34	2542.34	2578.94	2563.34	2582.34	2582.94	2575.34	2567.14	2527.14	2564.14	2557.54	2557.54
696.167	4777.39	1041	2571.78	2587.38	2511.98	2551.58	2533.18	2504.58	2547.78	2582.58	2558.38	2525.98	2517.58	2502.38	2523.18	2522.98	2523.98	2526.38	2526.38
696.383	4731.44	1034.94	2572.89	2549.76	2491.16	2486.96	2536.56	2493.36	2518.56	2519.36	2499.56	2503.56	2530.16	2518.56	2486.76	2478.16	2492.96	2491.76	2491.76
696.598	4660.71	1043.28	2526.77	2550.24	2513.64	2511.44	2502.84	2457.24	2483.44	2488.04	2476.24	2486.04	2470.44	2469.64	2432.24	2464.24	2477.24	2489.84	2489.84
696.814	4636.11	1037.22	2540.01	2523.14	2495.34	2494.74	2478.54	2478.34	2524.14	2470.14	2478.74	2532.14	2493.34	2461.94	2459.34	2480.34	2466.14	2453.34	2453.34
697.029	4601.44	1036.66	2474.66	2480.86	2462.26	2449.86	2437.66	2434.86	2493.26	2450.46	2480.46	2435.46	2456.26	2481.06	2460.06	2449.86	2416.66	2450.26	2450.26
697.245	4588.79	1046.36	2482.27	2460.14	2435.14	2450.34	2439.74	2461.54	2429.34	2440.14	2453.34	2444.54	2460.54	2461.54	2417.94	2465.14	2470.74	2414.14	2414.14
697.46	4510.59	1046.02	2452.07	2406	2395	2430.2	2445.8	2395	2469.4	2416.2	2383.8	2447	2445.6	2437.2	2412.8	2405.4	2419.6	2387.6	2387.6
697.676	4501.93	1040.8	2436.49	2385.89	2395.69	2386.29	2340.89	2399.09	2383.09	2360.49	2364.49	2371.89	2427.09	2337.89	2401.49	2374.89	2375.49	2380.29	2380.29
697.891	4470.2	1046.56	2423.94	2383.14	2391.14	2420.74	2395.74	2368.54	2383.14	2360.34	2399.54	2375.34	2391.94	2389.94	2363.74	2392.14	2393.54	2384.14	2384.14
698.106	4443.51	1033.76	2430.29	2364.02	2387.02	2386.62	2376.82	2368.42	2398.62	2379.22	2349.62	2404.82	2352.22	2348.42	2380.02	2353.02	2403.22	2396.82	2396.82
698.321	4368.61	1036.28	2370	2350.1	2328.4	2342	2342.4	2320.2	2344.4	2290.2	2329.6	2372.6	2345	2281.4	2332.4	2313.2	2327.4	2369	2369
698.537	4351.03	1035.78	2357.99	2327.26	2303.26	2350.86	2334.86	2325.86	2334.86	2308.26	2338.46	2287.86	2280.66	2319.46	2305.66	2338.26	2303.86	2314.86	2314.86
698.752	4305.37	1041.98	2356.53	2384.66	2307.46	2290.26	2271.06	2266.86	2289.86	2277.66	2323.06	2321.66	2305.66	2329.06	2296.46	2291.26	2287.26	2308.66	2308.66
698.967	4264.73	1047.76	2331.45	2316.12	2268.32	2307.32	2285.32	2286.92	2291.72	2296.32	2270.52	2287.52	2278.12	2284.12	2309.72	2267.52	2260.12	2243.12	2243.12
699.182	4229.14	1046.28	2320.11	2268.44	2277.44	2284.64	2342.44	2296.24	2271.84	2282.04	2306.64	2279.04	2250.84	2277.04	2295.04	2288.84	2223.24	2268.84	2268.84
699.397	4196.74	1038.92	2299.56	2317.96	2283.76	2266.16	2286.56	2239.36	2280.36	2241.76	2263.56	2253.36	2244.96	2286.16	2271.36	2289.16	2271.76	2257.76	2257.76
699.612	4135.4	1039.78	2250.61	2198.08	2263.88	2273.28	2240.48	2250.28	2254.68	2221.28	2223.48	2212.68	2224.48	2250.28	2252.48	2238.88	2209.28	2238.08	2238.08
699.826	4124.94	1040.08	2226.34	2243.47	2233.87	2166.07	2173.47	2211.27	2227.27	2206.67	2205.67	2186.27	2198.87	2187.67	2157.27	2190.67	2217.67	2220.27	2220.27
700.041	4081.51	1035.3	2240.32	2254.32	2218.52	2210.12	2207.32	2198.52	2182.72	2166.72	2180.92	2197.32	2157.32	2153.32	2185.72	2236.72	2224.12	2194.12	2194.12
700.256	4053.19	1029.76	2235.43	2224.1	2192.1	2153.3	2213.1	2198.3	2194.1	2175.1	2233.7	2178.4	2164.3	2163.7	2162.9	2173.5	2175.7	2149.5	2149.5
700.471	3990.01	1038.88	2217.37	2157.24	2183.04	2108.04	2173.04	2119.64	2184.44	2142.84	2131.04	2144.44	2177.44	2137.44	2186.84	2166.84	2170.24	2144.24	2144.24
700.685	3974.81	1040.18	2171.3	2158.7	2186.5	2164.1	2185.5	2129.5	2178.5	2123.7	2150.1	2147.5	2174.1	2126.5	2154.3	2148.9	2152.5	2165.7	2165.7
700.9	3927.8	1038	2179.48	2151.48	2125.28	2085.68	2117.88	2104.08	2167.48	2141.48	2096.28	2096.88	2152.88	2117.68	2052.48	2107.88	2104.48	2098.08	2098.08
701.114	3907.58	1029.68	2152.02	2145.82	2131.42	2116.02	2118.82	2139.62	2101.62	2137.22	2118.42	2137.22	2105.42	2120.62	2129.62	2096.62	2105.82	2116.82	2116.82
701.329	3862.59	1032.9	2103.5	2098.3	2156.5	2107.9	2110.3	2048.5	2112.1	2062.9	2070.3	2098.7	2095.5	2111.1	2051.5	2089.1	2099.3	2116.5	2116.5
701.543	3825.07	1040.48	2103.49	2131.42	2099.42	2082.22	2109.82	2078.42	2096.22	2111.72	2098.02	2074.42	2070.82	2033.22	2061.62	2090.62	2053.42	2080.22	2080.22
701.758	3805.65	1033.7	2080.77	2069.84	2078.44	2074.44	2076.64	2059.44	2067.24	2059.64	2085.04	2040.64	2073.04	2044.84	2038.24	2044.84	2047.44	2061.64	2061.64
701.972	3782.24	1028.96	2079.87	2053.2	2040.6	2050.2	2009	2067.2	2056.4	2104.2	2059	2081.4	2076	2035.4	2033.8	2044.4	2051.6	2068.8	2068.8
702.186	3718.55	1031.12	2051.78	2028.58	1998.58	2012.58	2032.98	1977.98	2020.58	2005.38	2001.98	2051.98	2014.98	2001.58	2056.58	1997.18	2027.78	1983.98	1983.98
702.4	3725.22	1036.14	2050	2045.8	2028.6	2065.8	2016.6	2020.6	2015.4	2019.4	2026	2009.4	2019	1999.2	2028.8	2028	1994.2	2015.4	2015.4
702.615	3692.55	1036.34	2039.57	2036.1	2015.3	2046.9	2021.3	2035.3	2031.9	2045.5	2030.1	2006.7	2016.1	2030.3	2025.5	2007.1	1991.1	2021.3	2021.3
702.829	3651.76	1042.39	1987.09	1962.42	2004.22	1956.62	1990.62	1978.22	1954.42	1989.62	1993.22	1979.82	1979.02	1981.62	1976.22	2005.02	1989.82	2005.02	2005.02
703.043	3623.73	1042.78	2010.34	1947.94	2014.54	1997.74	1981.14	1959.14	1971.54	1940.34	1942.74	1953.54	1958.94	1970.54	1942.94	1954.14	1933.34	1960.94	1960.94
703.257	3562.66	1040.6	1974.18	1953.38	1945.38	1930.58	1922.18	1921.58	1940.38	1928.78	1956.98	1944.78	1947.18	1921.98	1933.38	1958.78	1929.78	1922.78	1922.78
703.471	3551.23	1035.36	1938.71	1915.64	1931.44	1924.24	1966.44	1927.64	1924.64	1925.04	1898.24	1913.24	1923.64	1924.84	1902.44	1929.04	1890.04	1910.24	1910.24
703.684	3530.23	1040.76	1919.18	1915.08	1891.88	1921.28	1931.68	1914.48	1908.08	1894.88	1906.48	1915.68	1887.68	1904.68	1897.88	1875.68	1913.28	1925.88	1925.88
703.898	3491.92	1039.3	1922.72	1892.52	1881.72	1918.92	1893.72	1897.12	1890.52	1906.32	1872.32	1875.12	1910.92	1889.52	1890.32	1913.32	1883.32	1866.72	1866.72
704.112	3465.58	1037.49	1906.16	1857.76	1859.96	1903.36	1946.76	1877.76	1928.36	1878.76	1897.26	1835.96	1870.96	1888.16	1891.96	1886.56	1889.96	1892.76	1892.76
704.326	3438.08	1037.58	1895.47	1867	1878.8	1877.4	1880.6	1870	1853.4	1843.4	1871.6	1786.4	1851	1845.4	1835.6	1851	1842.2	1863.6	1863.6
704.539	3395.97	1032.52	1862.61	1854.88	1865.68	1855.28	1867.08	1821.28	1853.48	1853.68	1832.88	1859.28	1845.48	1853.88	1827.48	1795.28	1855.68	1853.88	1853.88
704.753	3341.5	1030.49	1848.32	1848.72	1836.52	1820.32	1831.72	1817.92	1842.92	1838.92	1816.72	1802.52	1791.72	1813.12	1826.52	1835.52	1835.92	1841.12	1841.12
704.967	3365.22	1036.78	1841.55	1840.75	1839.35	1833.95	1811.35	1838.55	1834.75	1834.35	1807.75	1833.55	1844.35	1808.75	1827.35	1789.55	1833.55	1857.15	1857.15
705.18	3306.7	1039.6	1804.63	1816.96	1761.76	1826.16	1842.56	1822.16	1822.76	1823.56	1762.76	1813.56	1792.36	1789.36	1792.76	1803.96	1822.56	1822.16	1822.16
705.394	3284.47	1046.22	1812.22	1787.42	1789.22	1788.02	1841.22	1816.62	1804.82	1758.42	1789.22	1833.62	1800.42	1773.42	1770.62	1768.62	1785.22	1756.02	1756.02
705.607	3277.98	1029.8	1794.74	1756.94	1799.94	1806.34	1781.74	1786.14	1784.54	1775.94	1758.74	1790.54	1773.34	1737.54	1753.94	1746.54	1766.34	1783.54	1783.54
705.82	3236.45	1042.06	1783.99	1796.72	1800.52	1757.32	1764.52	1785.12	1753.52	1767.72	1741.52	1753.12	1752.72	1742.52	1757.72	1747.12	1733.72	1755.32	1755.32
706.034	3193.06	1036.88	1786.3	1762.1	1761.9	1748.3	1718.1	1745.1	1749.3	1732.7	1753.1	1716.1	1758.5	1757.3	1726.1	1697.5	1702.7	1715.1	1715.1
706.247	3163.8	1034.28	1757.03	1750.36	1742.36	1764.16	1704.96	1741.16	1706.96	1733.96	1686.56	1742.76	1733.56	1738.56	1724.36	1721.36	1720.76	1697.16	1697.16
706.46	3163.2	1039.9	1743.69	1734.96	1726.96	1713.96	1728.76	1760.16	1692.16	1696.16	1718.76	1689.76	1719.96	1721.56	1719.56	1667.16	1715.76	1713.36	1713.36
706.673	3117.47	1042.12	1728.27	1707.94	1672.94	1720.34	1701.84	1746.54	1676.34	1689.34	1701.14	1715.94	1709.74	1676.74	1708.34	1670.34	1715.94	1730.14	1730.14
706.886	3088.21	1037.1	1737.22	1690.02	1704.62	1673.02	1694.82	1708.22	1677.82	1677.42	1672.42	1687.42	1701.82	1665.42	1681.02	1652.42	1680.22	1693.22	1693.22
707.099	3067.27	1040.16	1693.73	1668.66	1708.86	1641.86	1655.66	1666.26	1681.26	1667.46	1669.66	1664.26	1680.06	1651.86	1653.26	1643.86	1680.26	1681.66	1681.66
707.312	3037.44	1041.86	1676.28	1648.68	1671.68	1649.88	1646.48	1647.68	1659.68	1648.28	1631.88	1655.28	1677.28	1649.88	1624.08	1621.68	1648.48	1633.08	1633.08
707.525	3007.22	1035.7	1663.27	1661.8	1640.4	1663.8	1641.2	1641.4	1646.4	1653	1626.8	1651.2	1632	1639.6	1637.4	1611.4	1616.2	1662.6	1662.6
707.738	2990.81	1042.38	1653.49	1645.36	1622.16	1607.96	1668.76	1634.56	1623.76	1618.16	1644.56	1646.36	1642.56	1615.76	1609.96	1644.36	1643.76	1630.96	1630.96
707.951	2964.5	1042.04	1652.77	1629.3	1639.9	1632.5	1627.3	1593.5	1638.1	1613.3	1602.3	1620.9	1614.7	1625.9	1594.5	1555.7	1575.7	1637.5	1637.5
708.163	2929.31	1038.22	1614.42	1590.82	1631.62	1608.62	1617.02	1610.42	1595.82	1577.02	1582.22	1623.02	1586.42	1600.82	1614.82	1605.62	1617.42	1567.62	1567.62
708.376	2898.54	1032.36	1610.31	1581.98	1621.98	1567.78	1633.58	1562.18	1591.98	1586.98	1607.58	1589.78	1600.78	1614.58	1603.78	1602.18	1552.58	1585.38	1585.38
708.589	2854.53	1036.7	1583.06	1570.86	1575.86	1603.06	1592.66	1557.46	1552.26	1564.66	1566.06	1573.86	1588.06	1563.66	1603.06	1573.86	1545.66	1564.86	1564.86
708.801	2853.94	1030.92	1573.87	1583.4	1564	1555.6	1573.4	1559.6	1592.8	1549.2	1567.6	1591	1580.2	1541.4	1568.4	1555.8	1586	1592.8	1592.8
709.014	2835.82	1034.8	1554.69	1503.16	1538.16	1572.56	1495.56	1525.96	1553.76	1501.76	1522.96	1499.76	1524.96	1522.36	1514.76	1557.96	1567.76	1557.36	1557.36
709.226	2804.85	1047.46	1546.95	1560.28	1522.08	1556.68	1509.68	1551.68	1490.88	1543.28	1527.08	1558.08	1543.28	1522.28	1537.28	1525.08	1494.68	1550.28	1550.28
709.439	2771.27	1037.22	1542.26	1535.26	1541.66	1529.66	1508.46	1536.46	1521.46	1561.06	1550.06	1532.26	1536.06	1543.66	1476.06	1544.86	1500.66	1555.66	1555.66
709.651	2759.71	1042.52	1540.47	1512.8	1494.6	1492	1479	1514.8	1488	1515.6	1499.4	1519.6	1511.4	1511.2	1522.2	1531.8	1518	1510	1510
709.864	2741.21	1025.7	1525.6	1519.8	1481.2	1490.2	1502.2	1474.6	1469.8	1527.6	1503	1518.6	1516.2	1528.4	1528	1490.8	1483	1481.2	1481.2
710.076	2700.49	1030.28	1506.55	1496.88	1493.48	1497.68	1438.48	1463.08	1459.88	1487.28	1497.88	1517.08	1492.88	1487.48	1489.68	1500.88	1486.88	1489.68	1489.68
710.288	2673.31	1036.18	1489.92	1492.45	1453.25	1488.05	1534.05	1473.85	1479.05	1436.85	1451.05	1443.05	1512.45	1495.45	1460.65	1459.25	1456.25	1463.85	1463.85
710.5	2645.02	1037.73	1490.93	1450.26	1467.26	1469.86	1501.66	1445.06	1473.66	1454.06	1454.86	1465.46	1444.66	1497.66	1453.86	1447.66	1429.86	1445.26	1445.26
710.712	2607.23	1049.4	1449.38	1401.78	1441.18	1440.38	1441.98	1421.78	1467.78	1452.38	1425.78	1450.38	1462.98	1433.58	1415.58	1453.18	1443.18	1427.58	1427.58
710.924	2587.23	1044.66	1429.96	1426.96	1418.76	1374.96	1444.36	1397.16	1433.76	1432.36	1407.96	1412.36	1409.76	1412.96	1429.96	1439.96	1453.96	1428.16	1428.16
711.136	2563.77	1031.4	1460.57	1456.64	1388.44	1404.04	1448.04	1417.84	1423.84	1430.64	1407.44	1429.44	1395.44	1411.44	1439.24	1440.84	1411.24	1423.24	1423.24
711.348	2534.52	1038.54	1401.93	1402.06	1385.46	1407.06	1402.46	1404.06	1367.26	1401.46	1396.86	1417.06	1388.86	1376.26	1393.66	1361.26	1417.66	1396.06	1396.06
711.56	2524.4	1036.8	1402.29	1409.76	1380.96	1403.76	1406.36	1406.96	1359.96	1370.16	1391.36	1389.76	1419.96	1408.76	1403.56	1379.76	1408.76	1372.56	1372.56
711.772	2462.63	1036.48	1405.51	1383.44	1373.44	1387.04	1370.64	1359.84	1398.04	1380.04	1386.64	1376.44	1360.44	1382.24	1391.84	1367.24	1384.84	1401.84	1401.84
711.984	2457.18	1041.76	1400.12	1382.92	1401.92	1356.32	1338.12	1381.92	1380.72	1343.12	1338.12	1390.32	1364.32	1350.72	1377.32	1356.92	1351.12	1351.12	1351.12
712.195	2439.71	1037.26	1381.39	1393.46	1377.06	1378.06	1334.26	1337.26	1360.66	1352.86	1351.86	1331.86	1344.66	1365.46	1327.86	1337.46	1323.86	1345.16	1345.16
712.407	2405.92	1036.9	1344.99	1360.86	1353.46	1323.66	1340.66	1333.66	1346.06	1312.26	1320.86	1339.46	1347.66	1309.86	1314.66	1317.66	1318.26	1338.86	1338.86
712.619	2384.7	1037.68	1353.65	1339.18	1329.98	1320.38	1352.78	1371.78	1342.38	1337.98	1314.98	1335.18	1340.38	1322.98	1272.78	1315.78	1313.38	1314.58	1314.58
712.83	2338.27	1044.38	1328.43	1318.3	1303.7	1352.9	1303.1	1311.3	1297.3	1316.9	1349.5	1271.3	1268.9	1261.5	1296.5	1298.3	1323.3	1270.5	1270.5
713.042	2326.24	1041.82	1300.79	1314.26	1315.06	1318.46	1303.66	1329.46	1295.46	1269.06	1320.66	1301.26	1295.86	1261.26	1289.26	1272.06	1287.06	1296.86	1296.86
713.253	2296.15	1032.6	1290.34	1281.74	1283.14	1297.54	1262.74	1272.14	1289.54	1274.34	1279.74	1269.14	1283.94	1272.14	1248.14	1277.94	1240.34	1290.34	1290.34
713.465	2284.78	1042.14	1284.46	1285.66	1303.66	1282.26	1245.06	1262.86	1271.46	1258.46	1283.46	1298.86	1282.86	1279.86	1321.06	1291.86	1249.26	1285.86	1285.86
713.676	2254.75	1036.72	1279.71	1276.78	1289.98	1281.78	1269.98	1276.38	1242.98	1251.98	1270.58	1285.18	1251.78	1247.58	1264.98	1236.98	1240.98	1273.98	1273.98
713.887	2229.58	1035.96	1270.52	1282.12	1295.12	1266.92	1242.92	1232.72	1254.72	1255.72	1247.32	1257.52	1270.72	1254.92	1264.72	1256.32	1272.32	1258.32	1258.32
714.099	2205.85	1030.02	1271.19	1245.62	1250.72	1286.92	1266.52	1233.12	1235.32	1230.52	1247.12	1224.52	1240.12	1212.92	1244.72	1268.72	1223.52	1265.72	1265.72
714.31	2181.04	1043.32	1253.44	1245.44	1212.24	1232.84	1267.44	1239.24	1217.44	1219.44	1220.24	1227.44	1257.24	1261.04	1215.04	1209.64	1246.84	1244.64	1244.64
714.521	2156.51	1044.52	1229.35	1233.48	1209.88	1245.68	1224.88	1192.68	1213.08	1234.28	1204.48	1233.28	1220.28	1211.08	1184.88	1196.08	1224.08	1210.48	1210.48
714.732	2142.01	1025.45	1205.15	1186.08	1178.08	1189.68	1235.08	1166.88	1183.68	1183.68	1195.88	1212.28	1231.48	1197.48	1190.08	1201.08	1209.28	1245.48	1245.48
714.943	2114.69	1024.98	1167.51	1203.78	1197.18	1174.18	1207.98	1178.58	1157.78	1167.18	1144.98	1140.58	1175.78	1162.18	1167.58	1187.58	1169.78	1201.18	1201.18
715.154	2092.33	1028.58	1196.11	1191.44	1182.04	1143.44	1141.64	1148.64	1165.04	1145.04	1201.04	1167.24	1126.84	1171.84	1156.84	1163.44	1179.84	1152.04	1152.04
715.365	2058.35	1036.5	1189.7	1142.1	1179.1	1166.5	1154.5	1166.1	1152.3	1149.9	1133.3	1148.1	1145.5	1167.1	1127.1	1147.3	1206.7	1143.9	1143.9
715.576	2047.95	1044.05	1183.92	1166.32	1208.72	1144.72	1141.12	1155.72	1183.72	1193.12	1159.52	1145.92	1138.92	1155.52	1148.32	1131.92	1111.72	1156.12	1156.12
715.787	2014.84	1037.08	1134.72	1148.32	1151.32	1166.12	1146.12	1146.52	1137.72	1126.72	1134.12	1132.12	1164.72	1124.72	1142.92	1114.32	1122.52	1134.52	1134.52
715.997	2004.54	1043.84	1138.07	1121.6	1136	1167	1136	1146.8	1118.2	1102.4	1130.8	1121.8	1148.8	1113.8	1134.6	1109.4	1124.6	1089.4	1089.4
716.208	1980.09	1037.68	1135.79	1112.46	1125.06	1113.46	1114.06	1126.06	1108.26	1086.06	1080.46	1095.86	1089.86	1088.66	1129.26	1094.86	1105.06	1074.86	1074.86
716.419	1977.88	1040.76	1120.55	1087.68	1134.48	1082.48	1126.08	1098.28	1143.08	1098.28	1151.68	1089.68	1106.48	1116.88	1110.68	1078.28	1086.48	1124.48	1124.48
716.629	1928.99	1034.86	1097.03	1082.16	1078.76	1063.96	1091.76	1093.16	1086.96	1090.36	1054.36	1096.16	1099.96	1082.36	1116.56	1038.76	1095.16	1092.36	1092.36
716.84	1910.9	1031.2	1080.93	1071.4	1074.2	1083.2	1100	1079	1053	1094.6	1064.6	1105.4	1084.8	1048	1050.6	1093.2	1089.2	1071.6	1071.6
717.05	1864.68	1025.54	1057.05	1054.62	1070.12	1065.32	1083.52	1063.52	1080.92	1061.12	1068.72	1043.92	1025.52	1024.92	1036.92	1084.12	1054.12	1034.72	1034.72
717.261	1863.26	1041.64	1065.91	1072.24	1034.84	1041.44	1049.64	1056.64	1041.04	1066.84	1051.64	1041.44	1023.24	1041.64	1039.44	1072.64	1044.04	1049.04	1049.04
717.471	1842.27	1040.88	1025.32	1065.42	1074.62	1042.02	1031.22	1026.82	1039.22	1020.22	1028.82	1023.82	1027.22	1039.62	1018.62	1030.62	1046.42	1064.62	1064.62
717.682	1814.05	1035.62	1040.37	1053.24	1031.44	1019.84	997.84	1012.04	992.24	1024.64	1047.24	1001.24	1039.64	1043.04	1005.04	1028.04	1009.44	1053.04	1053.04
717.892	1788.34	1041.54	1019.81	1035.74	1010.14	1008.74	991.14	1012.14	1033.74	1001.94	1017.34	988.14	1011.94	1002.54	1035.34	1006.74	1010.94	1016.94	1016.94
718.102	1758.17	1037.64	1009.63	1023.3	983.7	991.9	1051.3	1002.1	1002.1	1012.3	1030.3	991.3	999.9	991.3	998.5	1016.7	1000.5	993.1	993.1
718.312	1747.96	1037.06	1000.53	984.06	1005.46	992.86	971.86	988.86	1010.26	968.86	978.86	982.66	1015.06	979.46	982.86	958.06	976.06	1030.86	1030.86
718.522	1738.67	1036.89	995.4	974.8	982.8	979	1019.6	987.4	992	994.4	1021.6	985.4	974.8	981	973.4	980.4	984.2	965.8	965.8
718.732	1704.88	1043.66	986.507	963.84	970.44	984.04	999.84	979.84	942.04	968.04	1007.64	966.04	954.64	950.64	949.64	962.04	984.44	961.44	961.44
718.942	1683.64	1036.53	978.367	974.9	978.9	959.5	936.1	950.9	941.5	945.3	1001.5	968.7	945.7	967.3	960.7	936.9	945.7	936.9	936.9
719.152	1648.25	1040.54	969.773	970.24	993.24	918.04	954.24	941.24	955.44	946.24	961.24	949.24	941.24	982.44	944.84	953.44	938.64	947.24	947.24
719.362	1638.56	1029.34	946.26	922.06	923.86	931.86	959.26	933.26	929.46	966.66	930.66	914.06	954.46	942.06	908.66	924.26	908.66	926.06	926.06
719.572	1616.51	1029.84	926.707	965.04	959.44	922.04	902.84	899.04	901.04	930.84	940.24	913.04	941.24	923.24	939.04	925.84	937.24	910.84	910.84
719.782	1599.38	1041.1	934.627	925.16	912.96	908.36	934.96	907.76	916.76	915.36	939.16	910.36	932.56	899.96	917.36	884.16	883.16	879.96	879.96
719.992	1596.91	1048.78	909.787	897.92	910.12	889.52	891.52	900.32	877.72	927.72	908.12	914.72	887.32	904.12	896.12	928.92	909.32	908.92	908.92
720.201	1567.39	1046.2	901.967	883.7	917.7	897.9	863.3	898.7	919.3	870.5	914.5	884.5	878.1	878.1	882.7	878.5	873.1	902.3	902.3
