#Wavelength [nm]	White Std.	Dark spec	0[s]	19.963[s]	40.004[s]	60.046[s]	80.107[s]	100.155[s]	120.207[s]	140.245[s]	160.34[s]	180.479[s]	200.542[s]	220.618[s]	240.657[s]	260.798[s]	280.886[s]	301.016[s]	301.029[s]
420.156	2097.42	1029.74	155.953	152.82	140.82	127.22	153.22	126.82	136.02	158.42	153.42	152.42	143.02	174.82	152.22	152.82	185.82	144.22	144.22
420.431	2166.58	1032.38	174.647	164.38	152.18	183.18	152.38	161.58	175.58	169.38	150.98	162.58	165.18	163.58	179.58	146.18	169.58	149.98	149.98
420.706	2268.67	1035.52	165.62	157.02	163.02	195.42	154.82	175.02	180.02	167.62	204.62	194.42	178.42	176.82	175.82	173.92	170.22	186.22	186.22
420.981	2380.65	1037.18	170.867	179.3	212.1	166.7	179.9	157.1	181.5	161.7	173.1	195.7	159.3	174.1	188.7	153.3	174.3	189.9	189.9
421.256	2499.86	1039.88	186.28	188.28	176.48	191.08	170.68	161.48	205.28	171.28	172.48	179.48	177.68	190.28	181.68	168.88	197.68	166.68	166.68
421.531	2620.01	1034.48	181.94	167.34	184.54	182.74	209.34	175.74	158.34	166.74	172.94	197.14	174.54	186.94	144.74	169.74	211.94	173.94	173.94
421.805	2755.52	1026.14	185.88	205.08	182.28	179.28	181.08	189.68	152.88	198.28	189.88	178.08	200.28	185.28	186.28	204.08	200.28	205.28	205.28
422.08	2816.77	1032.88	208.9	171.9	198.1	208.7	182.1	161.9	223.7	203.7	212.7	181.1	182.9	204.3	187.7	218.9	185.7	201.7	201.7
422.355	3038.76	1042.4	212.98	196.38	181.98	193.38	206.38	192.58	217.38	202.38	217.58	193.58	197.18	208.38	221.58	226.18	208.78	204.18	204.18
422.63	3131.63	1043.8	216.247	200.18	235.78	225.18	201.78	194.98	209.58	216.78	247.78	175.18	226.58	201.98	199.98	207.58	210.98	200.98	200.98
422.904	3226.56	1034.34	209.027	245.76	219.96	199.16	229.96	198.76	205.96	225.56	217.56	206.96	209.76	245.16	223.96	228.56	241.96	208.96	208.96
423.179	3334.87	1022.18	232.873	223.74	179.74	219.94	251.94	224.74	216.94	223.94	230.54	248.14	235.14	229.34	212.54	226.54	205.14	210.34	210.34
423.453	3481.44	1031.26	236.667	240.2	237	256.6	248.2	217.2	228.8	214.4	254.2	244	253.4	260.2	228.6	226.2	226.2	241.4	241.4
423.728	3684.03	1029.1	247.7	258.7	265.7	240.9	229.1	254.7	242.3	249.7	221.1	239.5	267.3	253.1	226.5	247.3	260.1	251.9	251.9
424.002	3801.02	1043.38	266.867	258.6	271.2	254.6	256.2	260	247	260	260.8	271.2	267.6	246	250.6	263.6	225.4	270.8	270.8
424.276	3962.07	1031.88	282.427	267.16	285.36	255.96	222.16	231.76	249.56	276.16	267.16	296.96	275.36	267.16	243.56	247.76	245.56	260.56	260.56
424.551	4161.04	1037.06	299.707	285.84	280.64	249.84	297.44	274.44	271.44	296.64	281.04	300.44	296.84	267.84	263.84	287.84	263.04	296.04	296.04
424.825	4324.26	1030.48	310.333	305.8	299.8	288	281.6	308.8	291.4	258.2	285	296	310.2	314.8	294.2	293.8	269.8	302.6	302.6
425.099	4500.9	1031.02	304.287	296.02	290.62	270.02	298.62	299.02	279.22	278.42	282.62	283.62	313.62	292.22	311.62	317.62	300.42	304.22	304.22
425.373	4679.09	1034.1	313.693	316.76	308.76	335.36	291.76	324.56	299.96	301.76	308.16	277.96	297.36	320.96	303.36	307.56	336.96	309.76	309.76
425.647	4928.73	1020.06	342.367	352.5	349.3	357.3	356.3	339.3	341.3	343.5	307.3	304.9	334.9	332.1	325.1	324.9	327.5	314.3	314.3
425.921	5037.36	1035.76	323.52	336.12	331.92	311.32	359.52	337.72	335.12	321.52	297.72	306.92	321.52	325.12	321.12	309.52	331.12	344.32	344.32
426.195	5113.26	1032.62	344.34	357.34	325.34	338.94	310.34	311.94	331.94	324.34	336.94	311.54	319.14	355.94	333.74	314.54	317.54	364.54	364.54
426.469	5385.73	1032.6	351.64	330.04	326.44	319.44	345.44	337.64	322.64	360.44	348.44	348.44	329.64	333.64	350.24	338.04	344.24	365.24	365.24
426.743	5649.55	1033.36	376.673	402.54	345.54	382.34	379.94	375.54	388.94	407.74	361.14	351.34	388.34	344.94	362.34	368.34	378.14	380.14	380.14
427.017	5781.29	1035.56	404.707	388.84	402.04	380.44	392.24	361.64	406.04	415.24	392.24	386.64	379.04	361.44	383.04	406.64	372.84	396.04	396.04
427.291	6014.73	1029	402.42	408.82	414.02	381.22	420.22	392.22	403.02	378.62	418.82	390.62	397.22	387.62	431.42	394.82	391.02	395.22	395.22
427.565	6244.66	1027.56	436.647	421.38	422.58	394.38	405.58	414.78	420.18	394.98	420.18	417.58	410.78	397.18	425.58	421.58	407.98	422.58	422.58
427.838	6431.49	1035.98	440.913	428.18	426.38	445.38	420.18	426.98	421.78	450.38	425.18	412.38	445.58	418.18	435.58	440.18	430.78	423.18	423.18
428.112	6663.32	1039.72	455.013	442.28	434.08	435.08	419.48	413.48	428.08	423.28	415.28	418.48	443.68	427.08	386.48	462.08	466.88	420.08	420.08
428.385	6841.81	1033.46	454.987	483.32	477.92	471.92	444.12	420.92	449.32	478.32	432.72	435.52	434.32	436.72	429.32	449.72	443.12	468.12	468.12
428.659	7079.69	1020.1	482.827	464.96	490.16	454.76	513.16	462.56	445.76	442.16	459.16	454.76	443.36	454.96	455.76	452.56	485.56	453.36	453.36
428.932	7310.97	1035.52	496.427	469.16	478.96	461.96	494.56	473.56	455.16	468.56	488.96	464.56	466.96	503.16	464.36	477.96	465.36	478.16	478.16
429.206	7491.87	1040.9	495.287	524.02	486.02	496.02	478.62	503.82	483.42	520.82	458.62	507.42	507.42	486.02	488.62	465.42	489.42	472.22	472.22
429.479	7851.67	1042.7	537.293	531.56	552.16	535.96	520.76	521.96	549.76	551.96	522.36	511.36	504.56	519.16	489.76	538.76	488.76	538.56	538.56
429.753	7903.38	1030.62	534.427	528.16	523.76	524.56	486.16	533.96	524.56	510.56	489.76	496.96	515.36	530.76	493.16	519.96	537.76	520.36	520.36
430.026	8105.87	1030.28	546.607	543.14	530.34	528.14	546.54	519.14	569.94	522.14	508.94	507.34	516.14	527.34	523.34	509.74	553.34	542.34	542.34
430.299	8422.05	1033.16	562.033	571.7	559.5	549.5	580.7	577.1	561.5	572.9	571.9	515.9	568.1	533.9	549.3	556.7	580.5	552.7	552.7
430.572	8729.51	1035.92	596.347	560.68	593.48	569.48	573.48	583.48	568.48	570.88	559.48	557.68	577.48	578.88	575.68	595.08	565.88	583.28	583.28
430.845	8948.34	1027.22	605.867	559.2	594.4	604.4	596.6	598.8	556.2	606	570.8	584.6	580.6	618.4	553.4	566.8	605	598.8	598.8
431.118	9027.42	1029.72	603.747	600.68	570.88	586.28	615.28	646.48	592.08	561.08	581.28	597.28	611.88	569.48	582.68	599.08	610.08	576.88	576.88
431.391	9179.7	1035.28	624.207	604.54	595.94	597.94	629.94	611.14	599.94	601.34	583.54	589.74	584.94	575.54	595.34	614.54	588.34	607.54	607.54
431.664	9421.46	1032.02	631.867	616.8	633.8	637.2	633	627.8	627.6	616.8	604.2	640	600.8	590.2	607.4	625.8	596.2	614.8	614.8
431.937	9687.49	1039.06	674.74	651.54	648.34	627.74	645.94	631.54	624.94	652.74	677.54	653.74	649.74	638.94	647.34	651.74	665.54	642.74	642.74
432.21	9951.87	1031.48	689.247	705.58	668.78	665.58	698.98	680.78	644.38	651.18	697.98	675.98	693.38	642.98	636.78	681.98	659.38	688.78	688.78
432.483	10196.8	1032.04	694.24	690.24	673.04	702.04	691.34	689.44	651.04	697.44	687.24	706.04	655.24	655.24	655.84	645.64	644.64	692.84	692.84
432.755	10401.5	1036.52	726.63	694.83	687.23	722.03	695.83	667.63	690.23	680.63	672.83	725.83	698.23	675.43	720.03	712.83	664.63	699.23	699.23
433.028	10577.4	1036.91	727.1	732.5	730.1	720.5	700.5	715.7	718.1	683.7	713.7	709.5	712.3	727.9	695.3	702.9	708.7	706.9	706.9
433.301	10740.1	1024.54	732.527	729.46	727.26	759.46	740.26	731.86	718.06	753.66	714.66	717.26	751.66	734.86	728.06	711.66	714.86	720.46	720.46
433.573	10872.2	1036.5	741.41	792.41	760.41	737.81	731.41	742.21	762.21	731.81	730.81	752.21	726.41	745.41	719.01	730.61	719.41	724.01	724.01
433.846	11440.7	1039.84	801.587	782.52	788.32	753.52	780.92	758.72	769.72	757.52	769.12	752.72	756.32	762.92	778.72	756.52	760.52	779.72	779.72
434.118	11313.3	1029.46	800.02	792.52	820.72	784.92	760.52	728.12	778.72	783.52	761.52	762.72	746.52	772.92	754.72	795.72	746.52	764.92	764.92
434.391	11405	1042.18	771.693	764.16	786.36	774.36	774.76	782.76	769.36	790.16	756.96	787.16	771.76	763.16	771.16	765.16	769.76	773.16	773.16
434.663	11730.8	1030.32	796.397	824.13	806.53	834.93	820.13	775.53	801.93	801.33	782.53	810.13	774.53	787.73	794.53	804.93	797.93	788.73	788.73
434.936	12043.1	1035.96	838.573	855.44	840.64	844.04	822.84	800.04	789.24	844.24	814.64	838.04	803.24	786.44	811.04	804.24	774.24	823.04	823.04
435.208	12122.4	1039.86	846.373	847.04	799.44	851.24	856.04	882.04	822.44	881.24	844.84	829.84	841.84	844.64	855.04	842.84	869.04	826.84	826.84
435.48	12474.5	1032.08	891.52	889.12	859.72	860.32	855.12	870.12	901.12	876.72	853.12	867.72	886.72	849.72	863.92	880.52	881.92	863.92	863.92
435.752	12544.1	1034.44	876.047	903.98	872.58	891.18	895.58	867.58	903.98	892.38	867.38	846.78	872.38	835.78	862.58	847.18	859.18	868.98	868.98
436.024	12632.3	1028.1	882.507	872.24	887.04	900.24	888.04	895.44	838.44	875.04	896.44	886.64	891.84	868.04	872.04	843.64	842.64	868.64	868.64
436.296	12978.7	1027.32	921.3	880.5	884.9	883.1	900.9	918.1	863.7	920.9	902.7	888.9	884.1	868.7	881.5	878.9	893.5	911.7	911.7
436.568	13299.7	1031.3	930.087	966.02	932.42	946.22	952.02	977.22	935.82	947.02	882.42	921.82	925.82	886.82	918.22	892.82	884.42	905.22	905.22
436.84	13344.7	1032.1	952.707	942.64	940.84	938.24	942.04	930.04	908.84	935.64	905.84	936.84	953.04	913.04	964.84	942.24	917.44	937.44	937.44
437.112	13711.1	1030.76	997.453	972.32	962.72	981.92	967.72	963.12	1006.32	978.72	979.92	943.32	987.72	951.72	945.92	946.32	978.12	954.72	954.72
437.384	14138	1038.06	1016.85	995.78	1003.98	988.98	1025.38	966.78	990.98	997.38	987.98	980.78	995.18	965.58	952.38	996.58	956.98	976.18	976.18
437.656	14124.4	1043.64	1019.99	1017.52	1009.92	995.32	1011.12	1015.12	1008.72	1007.72	993.12	991.12	1007.52	977.32	975.52	972.12	971.12	992.92	992.92
437.928	14231.4	1036.84	1028.25	1024.92	993.32	1002.92	1021.32	1001.12	1001.72	982.72	974.92	967.12	980.52	983.32	991.72	978.12	977.12	990.52	990.52
438.199	14726.1	1034.88	1069.07	1066.74	1009.14	1040.74	1056.74	1037.34	1047.14	1050.74	1032.14	984.54	1016.74	1041.94	1015.14	1030.34	1053.14	1037.74	1037.74
438.471	15112.5	1038.22	1078.69	1103.36	1072.36	1064.96	1074.96	1082.76	1072.16	1079.16	1056.76	1078.16	1045.16	1054.16	1055.76	1075.16	1036.96	1037.96	1037.96
438.743	15031.8	1031.96	1084.01	1076.08	1080.48	1066.88	1064.88	1064.48	1073.68	1056.28	1055.08	1064.28	1073.28	1049.28	1046.08	1071.08	1054.28	1057.88	1057.88
439.014	15520.4	1031.78	1100.21	1148.94	1099.94	1120.94	1120.14	1112.14	1086.34	1122.74	1067.14	1096.74	1065.34	1084.94	1072.34	1052.94	1048.34	1093.94	1093.94
439.286	15873.8	1050.8	1165.01	1149.54	1132.94	1124.34	1149.54	1088.94	1167.14	1104.54	1112.34	1104.14	1127.14	1100.34	1090.74	1088.14	1102.34	1089.34	1089.34
439.557	15808.6	1037.46	1149.63	1115.7	1096.9	1177.7	1129.3	1133.7	1136.9	1135.5	1112.3	1152.7	1108.7	1113.7	1122.3	1140.3	1109.9	1106.7	1106.7
439.828	16376.8	1034.82	1206.65	1179.98	1187.98	1184.78	1169.58	1177.38	1152.58	1182.38	1183.38	1176.38	1154.98	1178.98	1136.38	1143.18	1143.98	1145.38	1145.38
440.1	16777.5	1029.82	1234.42	1241.62	1222.02	1206.02	1220.62	1244.42	1191.02	1214.82	1163.62	1204.82	1204.82	1209.22	1208.02	1222.42	1179.02	1181.62	1181.62
440.371	16694.5	1044.76	1222.71	1209.04	1232.44	1238.64	1202.24	1184.64	1206.64	1191.04	1187.64	1188.24	1196.04	1181.84	1193.24	1214.24	1164.44	1178.84	1178.84
440.642	17201.6	1036.64	1279.42	1235.02	1197.82	1283.62	1250.62	1251.82	1214.02	1233.22	1234.82	1238.02	1238.82	1203.42	1231.82	1225.82	1224.62	1263.02	1263.02
440.913	17586.5	1033.94	1292.25	1284.52	1277.32	1266.52	1237.72	1244.72	1272.52	1290.72	1210.72	1252.52	1250.72	1226.12	1215.92	1229.52	1206.12	1231.12	1231.12
441.184	17794	1031.04	1312.26	1234.66	1307.46	1263.86	1292.06	1306.46	1282.66	1269.86	1307.46	1257.46	1266.86	1275.46	1274.26	1265.86	1249.66	1272.46	1272.46
441.456	18180.6	1032.82	1337.06	1284.33	1289.33	1343.53	1285.73	1298.93	1313.13	1303.53	1326.73	1309.53	1292.73	1274.33	1281.33	1294.33	1269.93	1269.53	1269.53
441.727	18413.2	1036.06	1351.5	1335.5	1310.9	1353.1	1331.5	1292.9	1335.3	1336.7	1363.5	1333.1	1298.5	1284.7	1287.7	1318.1	1308.9	1303.5	1303.5
441.998	18848.1	1037.91	1390.47	1412.54	1359.74	1395.34	1365.54	1398.94	1366.14	1369.34	1339.34	1342.54	1322.54	1322.74	1363.94	1373.74	1315.94	1332.14	1332.14
442.268	19392.6	1032.46	1441.79	1436.46	1399.86	1443.86	1381.46	1371.26	1375.06	1432.86	1366.06	1377.06	1374.26	1381.46	1400.06	1399.26	1394.26	1386.86	1386.86
442.539	19370.6	1033.6	1428.16	1419.56	1404.16	1397.76	1411.96	1367.96	1397.76	1387.96	1400.36	1426.16	1392.76	1414.56	1388.56	1385.56	1383.56	1369.36	1369.36
442.81	20290	1037.28	1516.27	1456.6	1474.2	1483.2	1478.8	1434.8	1471.2	1498.8	1441.2	1462	1435.4	1456.8	1426.4	1443	1464.6	1414.6	1414.6
443.081	20151.4	1033.96	1517.68	1463.88	1472.08	1471.28	1461.48	1482.68	1446.48	1438.28	1461.68	1488.68	1462.88	1430.88	1427.08	1462.28	1445.28	1442.48	1442.48
443.352	20682	1040.16	1558.07	1517.34	1503.54	1535.14	1527.14	1539.54	1503.34	1471.74	1501.74	1516.14	1499.14	1500.94	1484.94	1500.94	1475.94	1516.14	1516.14
443.622	20915.1	1035.14	1573.97	1522.64	1531.44	1539.04	1534.44	1565.24	1562.84	1535.04	1554.04	1508.04	1509.04	1537.24	1518.84	1540.04	1507.24	1508.44	1508.44
443.893	21308.2	1021.86	1578.89	1595.22	1568.62	1539.02	1507.62	1524.82	1530.82	1555.22	1565.82	1526.82	1546.62	1534.02	1540.62	1527.42	1509.62	1533.22	1533.22
444.163	21839.2	1037.56	1647.29	1618.96	1626.56	1592.36	1626.56	1592.36	1615.36	1636.76	1619.96	1593.76	1583.96	1577.16	1575.96	1579.56	1576.56	1585.76	1585.76
444.434	22149.1	1022.24	1665.85	1679.98	1675.78	1667.58	1619.58	1653.38	1631.78	1631.38	1630.38	1634.58	1581.18	1593.78	1628.38	1594.58	1630.78	1621.58	1621.58
444.704	22429.9	1030.86	1691.38	1671.18	1683.58	1614.78	1670.58	1629.98	1644.38	1642.18	1671.78	1662.18	1624.98	1604.78	1631.98	1667.38	1630.18	1631.78	1631.78
444.975	22919.3	1024.46	1723.39	1739.12	1715.92	1698.72	1707.72	1702.32	1688.32	1669.32	1666.52	1651.32	1695.12	1654.12	1691.52	1661.92	1670.92	1638.52	1638.52
445.245	22974.9	1035.3	1743.45	1714.18	1698.38	1728.38	1697.78	1707.58	1708.18	1692.78	1670.38	1637.78	1688.78	1703.78	1668.38	1640.38	1667.18	1655.38	1655.38
445.515	24052.1	1032.56	1826.44	1812.44	1817.44	1809.84	1818.84	1789.64	1763.44	1781.84	1728.84	1755.84	1733.24	1739.64	1765.44	1789.44	1743.24	1738.24	1738.24
445.786	23975.5	1043.64	1814.47	1810.74	1798.74	1797.54	1786.54	1758.34	1794.74	1768.54	1769.94	1757.54	1765.14	1750.74	1772.74	1789.34	1751.54	1751.34	1751.34
446.056	24639.7	1035.44	1871.41	1869.68	1863.68	1856.08	1798.88	1808.28	1813.68	1828.48	1816.68	1799.88	1787.88	1801.28	1839.88	1820.68	1797.48	1790.08	1790.08
446.326	24847.5	1032.28	1889.43	1860.9	1889.3	1829.5	1855.5	1881.3	1848.3	1847.3	1807.9	1809.1	1834.1	1806.9	1833.5	1809.9	1790.3	1764.1	1764.1
446.596	25224.9	1032.34	1917.68	1889.28	1931.48	1858.08	1889.48	1871.08	1868.28	1844.48	1846.48	1902.68	1878.08	1856.68	1905.88	1869.28	1876.88	1854.48	1854.48
446.866	25501.2	1039.98	1976.53	1956.06	1913.26	1922.86	1920.46	1917.26	1913.06	1857.86	1913.66	1871.86	1927.46	1870.06	1890.66	1916.06	1879.86	1881.86	1881.86
447.136	25743.3	1039.66	1993.76	1962.36	1923.16	1961.06	1961.76	1934.56	1905.36	1926.16	1918.16	1914.36	1902.76	1943.96	1913.36	1892.76	1888.36	1886.36	1886.36
447.406	25906	1030.94	2007.29	2013.09	1953.69	1975.29	1950.29	1959.69	1939.89	1956.49	1894.69	1945.89	1934.69	1954.49	1908.89	1916.89	1953.49	1925.89	1925.89
447.676	26311.4	1029.2	2015.05	2028.58	1980.58	1988.38	1966.78	1983.18	1979.38	1972.98	1966.18	1985.98	1975.58	1992.58	1986.18	1964.18	1952.98	1956.38	1956.38
447.946	26827.6	1036.24	2072.51	2031.84	2040.44	2040.04	2029.44	2055.44	2015.34	2029.64	2020.04	2013.64	2017.44	1995.64	2002.44	1985.64	1983.24	2023.64	2023.64
448.215	26646.9	1030.5	2083.08	2057.88	2080.08	2036.88	2041.28	2055.28	2009.68	2038.68	2025.88	2034.88	2010.88	2008.88	1989.68	2008.48	1983.08	1985.68	1985.68
448.485	26791.3	1036.78	2094.83	2063.96	2037.16	2064.16	2007.16	2030.76	2045.76	2035.96	2033.96	2014.56	2010.36	2027.36	1997.76	2003.96	2080.96	2001.16	2001.16
448.755	27135.4	1032.6	2133.33	2114.8	2132.2	2089.6	2107.8	2086	2110	2071.4	2059.6	2070	2053.8	2021.4	2028	2049.6	2046.8	2062.8	2062.8
449.024	27508	1048.54	2172.37	2142.7	2112.1	2094.9	2103.5	2118.3	2100.9	2119.7	2104.3	2085.1	2088.3	2087.7	2089.3	2080.1	2069.1	2087.9	2087.9
449.294	27269.9	1034.7	2170.95	2128.42	2094.82	2118.42	2069.62	2117.82	2069.02	2097.42	2078.62	2082.22	2052.22	2048.02	2079.82	2084.42	2041.62	2053.42	2053.42
449.563	27330.9	1036.56	2173.33	2138.8	2106.2	2132.4	2128.8	2061.2	2083.8	2109.2	2051.4	2083.2	2113.4	2079.4	2079	2079.2	2099.2	2112.6	2112.6
449.833	27548.3	1035.6	2228.72	2210.12	2169.52	2158.32	2164.12	2151.52	2157.52	2131.92	2107.32	2109.12	2144.12	2102.72	2114.12	2181.12	2136.72	2135.32	2135.32
450.102	27971.1	1032.46	2249.27	2197.8	2237.6	2183	2192.6	2206.2	2183.2	2173.8	2177.2	2172.6	2104.6	2174.2	2136	2147.6	2146.8	2164.4	2164.4
450.372	27963.5	1036.58	2275.36	2210.36	2252.96	2236.16	2201.16	2234.76	2206.56	2215.16	2194.16	2174.76	2193.56	2172.76	2170.16	2223.56	2203.76	2185.36	2185.36
450.641	27496.9	1032.78	2252.23	2249.7	2185.1	2172.5	2156.3	2210.1	2177.1	2154.9	2143.7	2154.5	2174.1	2179.3	2151.1	2169.7	2155.1	2131.9	2131.9
450.91	27003.1	1037.7	2227.06	2153.46	2153.26	2159.86	2156.46	2128.26	2157.26	2135.46	2165.66	2117.86	2148.66	2127.26	2109.06	2125.26	2108.26	2125.86	2125.86
451.179	26860.6	1035.9	2234.93	2144.2	2186.4	2162.4	2158	2169.6	2179.4	2145.4	2147.8	2139.2	2159.2	2107.2	2139.4	2123	2128.2	2126.6	2126.6
451.448	27428.9	1037.86	2284.38	2235.38	2236.58	2221.38	2236.98	2190.78	2199.78	2205.98	2195.18	2207.58	2199.98	2178.38	2236.58	2212.98	2219.98	2214.58	2214.58
451.717	26384.5	1034.32	2240.18	2167.58	2197.38	2140.78	2187.78	2154.38	2109.38	2123.98	2159.18	2132.18	2143.18	2130.78	2131.98	2107.58	2139.98	2132.78	2132.78
451.986	26978.5	1045.26	2291.22	2265.02	2264.22	2223.62	2254.62	2217.42	2229.22	2225.42	2201.42	2202.02	2169.22	2222.02	2212.82	2187.62	2203.22	2166.22	2166.22
452.255	26369.4	1030.73	2266.05	2193.72	2183.72	2194.52	2159.72	2184.12	2137.72	2170.72	2197.92	2155.52	2185.12	2132.32	2136.52	2123.12	2183.92	2123.12	2123.12
452.524	25906.6	1033.84	2229.05	2147.58	2222.78	2130.98	2140.98	2146.58	2147.38	2151.58	2137.78	2120.18	2131.38	2129.18	2115.18	2088.58	2114.58	2143.98	2143.98
452.793	26166	1028.82	2282.75	2219.88	2185.48	2237.28	2205.08	2173.88	2167.08	2180.68	2159.88	2173.68	2180.48	2163.88	2120.08	2178.68	2180.48	2193.08	2193.08
453.062	25685.7	1042.78	2215.79	2165.12	2217.32	2173.32	2183.12	2157.32	2137.92	2175.12	2148.72	2165.72	2147.32	2120.12	2125.12	2152.52	2130.92	2107.72	2107.72
453.331	25412.9	1036.8	2207.02	2220.62	2147.02	2161.22	2145.22	2132.02	2152.22	2156.62	2121.02	2130.82	2093.02	2168.62	2121.02	2153.62	2151.22	2104.82	2104.82
453.6	24989.8	1029.32	2176.59	2174.92	2156.72	2112.92	2143.92	2108.72	2089.92	2157.92	2154.72	2111.92	2094.92	2093.72	2110.92	2119.52	2118.52	2113.12	2113.12
453.868	24542.7	1032.32	2168.33	2157.66	2132.46	2083.86	2135.06	2114.26	2136.66	2107.06	2096.26	2080.66	2122.46	2099.06	2061.26	2072.46	2115.26	2080.06	2080.06
454.137	24320.4	1031.1	2147.53	2122.66	2078.86	2102.06	2070.46	2129.06	2105.46	2077.06	2091.26	2069.86	2060.26	2062.46	2054.46	2079.06	2038.46	2059.06	2059.06
454.405	23810.9	1036.74	2118.35	2101.48	2111.88	2066.08	2070.68	2043.88	2051.88	2025.08	2047.08	2047.08	2057.88	2070.48	2030.28	2009.88	2060.48	2037.88	2037.88
454.674	23436.6	1035.18	2104.18	2069.18	2069.38	2051.18	2064.18	2047.58	2014.78	2031.18	2029.58	2047.18	2014.18	2014.78	2005.58	2023.38	2036.38	2016.58	2016.58
454.942	23098.7	1031.8	2097.39	2072.12	2072.12	2059.52	2079.12	2004.12	2028.32	1989.32	2007.92	2019.92	1975.32	1996.52	1983.52	1984.92	1988.72	2010.52	2010.52
455.211	22795.9	1037.66	2059.69	2038.82	2042.42	2034.42	1979.62	1994.62	1993.22	1991.62	1985.82	2008.82	2006.02	1978.42	1981.22	1962.82	2005.82	1970.82	1970.82
455.479	21681.6	1026.56	1994.55	1965.28	1936.48	1906.88	1937.48	1924.08	1904.88	1918.58	1881.68	1878.88	1882.28	1922.88	1868.68	1869.28	1924.88	1905.88	1905.88
455.747	21813.5	1032.84	1988.96	1994.16	1952.36	1934.96	1942.16	1964.76	1947.96	1903.56	1922.56	1951.16	1907.16	1951.96	1951.56	1934.16	1926.16	1928.96	1928.96
456.016	21753.6	1030.4	1993.03	1997.3	1961.7	1974.3	1936.9	1973.1	1912.3	1960.7	1951.3	1918.5	1966.9	1898.3	1938.9	1922.5	1917.1	1913.7	1913.7
456.284	20947.2	1037.58	1923.11	1937.98	1923.18	1888.98	1874.98	1898.28	1891.58	1902.58	1864.98	1832.38	1877.38	1832.98	1847.98	1855.78	1852.98	1862.38	1862.38
456.552	20825.3	1029.2	1952.31	1911.38	1922.98	1906.58	1918.98	1897.18	1898.98	1892.38	1909.38	1851.78	1882.58	1870.18	1886.18	1885.78	1872.78	1902.38	1902.38
456.82	20055.3	1030	1886.95	1858.48	1795.88	1800.68	1847.48	1825.48	1819.28	1779.48	1828.08	1827.88	1810.08	1817.28	1788.08	1806.88	1838.68	1780.28	1780.28
457.088	19285	1028.14	1816.99	1806.72	1784.32	1755.32	1767.72	1764.32	1784.12	1783.12	1768.52	1769.12	1698.32	1771.32	1734.92	1747.32	1759.72	1753.72	1753.72
457.356	19201.7	1040.68	1808.84	1815.64	1807.44	1784.44	1783.84	1753.04	1746.44	1761.84	1765.24	1729.84	1769.64	1783.64	1755.44	1773.04	1739.64	1762.04	1762.04
457.624	18906.7	1035.95	1797.12	1767.12	1796.52	1821.72	1774.92	1731.92	1747.52	1749.12	1731.52	1751.12	1752.92	1728.52	1726.12	1720.72	1749.72	1700.52	1700.52
457.892	18587.7	1037.76	1764.51	1742.04	1769.84	1750.04	1744.04	1689.84	1738.44	1727.84	1721.64	1722.24	1697.44	1697.24	1697.84	1674.84	1676.04	1712.04	1712.04
458.16	17760.1	1039.34	1702.74	1683.34	1646.74	1668.54	1681.24	1670.54	1683.74	1656.74	1644.94	1645.54	1662.54	1662.94	1644.14	1620.14	1644.34	1672.14	1672.14
458.428	17757.5	1033.54	1703.17	1695.7	1689.9	1661.7	1680.5	1663.7	1662.5	1657.9	1619.9	1664.5	1641.5	1672.1	1674.3	1627.5	1606.1	1651.5	1651.5
458.695	17149.1	1033.9	1670.49	1619.96	1640.96	1579.96	1612.16	1616.56	1593.76	1639.56	1603.76	1587.56	1608.16	1597.16	1622.16	1589.96	1610.96	1573.76	1573.76
458.963	17315.4	1030.78	1684.21	1658.74	1647.94	1668.34	1657.14	1584.54	1654.54	1646.94	1606.34	1601.54	1623.94	1589.54	1594.74	1622.74	1617.54	1635.34	1635.34
459.231	16807.7	1031.64	1646.12	1646.92	1600.92	1617.72	1592.92	1596.32	1572.92	1567.52	1579.12	1570.42	1575.92	1583.72	1569.72	1555.12	1582.72	1563.32	1563.32
459.498	16268.3	1037.66	1622.23	1586.16	1587.96	1545.56	1563.76	1542.96	1525.16	1510.96	1544.96	1541.76	1553.76	1551.96	1536.56	1531.56	1511.36	1532.96	1532.96
459.766	16266.5	1032.76	1594.09	1551.42	1585.22	1538.22	1585.62	1558.22	1549.02	1517.82	1561.42	1515.82	1532.82	1498.02	1527.22	1505.02	1516.62	1522.02	1522.02
460.033	16057	1042.52	1576.35	1565.88	1555.48	1552.48	1562.08	1549.08	1520.68	1544.68	1517.88	1486.68	1513.68	1511.08	1504.48	1501.28	1534.08	1530.48	1530.48
460.301	15771.6	1033.1	1576.11	1526.98	1542.18	1524.18	1525.78	1510.18	1519.98	1466.38	1493.18	1491.78	1482.78	1515.98	1480.18	1492.18	1477.38	1500.38	1500.38
460.568	15472.1	1043.42	1544.27	1516.4	1529.6	1509.4	1496	1485.2	1521.2	1487.4	1475	1486.8	1473.2	1473	1491.8	1461.6	1432.4	1460.4	1460.4
460.835	15294.5	1027.08	1530.03	1501.1	1511.8	1483.7	1501.7	1521	1490.3	1456.3	1475.3	1441.5	1474.9	1414.7	1436.9	1447.3	1463.7	1468.3	1468.3
461.103	15218.3	1030.38	1519.81	1507.74	1476.54	1465.34	1475.74	1461.54	1452.14	1457.54	1447.34	1429.14	1468.74	1408.74	1448.14	1442.54	1440.94	1433.94	1433.94
461.37	14572.1	1038.66	1497.85	1455.58	1464.98	1412.18	1416.38	1469.98	1419.18	1413.58	1419.38	1407.38	1405.78	1402.58	1403.98	1386.58	1389.78	1371.78	1371.78
461.637	14550.4	1035.03	1454.06	1435.66	1382.06	1427.46	1426.26	1427.86	1404.06	1407.46	1406.66	1368.66	1370.86	1401.66	1351.66	1392.66	1360.26	1348.26	1348.26
461.904	14394.5	1036.74	1462.65	1434.18	1423.98	1391.98	1387.98	1398.98	1394.58	1360.38	1401.38	1343.38	1385.98	1373.78	1390.38	1393.18	1368.18	1395.38	1395.38
462.171	14249.6	1037.26	1441.92	1416.72	1387.72	1365.32	1379.72	1390.12	1356.92	1382.92	1396.32	1372.32	1401.52	1373.92	1348.72	1370.72	1350.32	1361.92	1361.92
462.438	13937.9	1030.62	1444.97	1386.5	1394.3	1404.9	1393.3	1358.1	1379.5	1353.9	1333.7	1377.1	1368.7	1326.7	1377.3	1334.7	1355.3	1353.9	1353.9
462.705	13985.5	1046.92	1434.1	1383.9	1390.1	1371.7	1373.3	1393.9	1382.7	1376.1	1398.3	1367.7	1396.7	1340.3	1344.3	1359.9	1338.7	1313.9	1313.9
462.972	13548.7	1046.7	1383.87	1367.6	1307	1350	1340.6	1350	1365.2	1364.8	1352	1335.8	1338.4	1319.6	1319.2	1315	1332.6	1262.4	1262.4
463.239	13694.1	1033.02	1416.46	1392.66	1363.86	1376.86	1378.06	1354.66	1346.26	1384.06	1374.06	1365.46	1336.86	1335.66	1345.26	1321.66	1346.26	1312.66	1312.66
463.505	13198.2	1040.42	1370.57	1375.5	1316.1	1323.9	1326.9	1289.7	1307.3	1318.7	1288.5	1271.9	1321.9	1301.1	1304.5	1284.5	1275.7	1293.9	1293.9
463.772	13333.8	1042.28	1379.56	1354.36	1355.36	1331.16	1335.36	1338.56	1309.96	1321.16	1331.16	1284.36	1340.96	1302.76	1298.16	1261.56	1315.56	1285.36	1285.36
464.039	13033.5	1030.42	1358.64	1315.04	1315.64	1313.04	1301.04	1311.04	1271.44	1332.24	1292.84	1272.04	1281.64	1285.84	1301.84	1277.84	1275.04	1279.24	1279.24
464.306	12955.3	1030.74	1363.43	1326.5	1331.9	1304.7	1319.1	1302.3	1294.3	1281.7	1274.1	1274.7	1302.7	1300.3	1269.3	1294.1	1263.9	1289.3	1289.3
464.572	12996.8	1044.42	1386.51	1326.64	1346.24	1355.84	1317.44	1311.44	1319.04	1326.84	1302.04	1295.64	1311.84	1318.24	1274.64	1289.64	1311.24	1285.44	1285.44
464.839	12916.5	1046.8	1377	1389.8	1349.4	1310.4	1321.4	1335.6	1304.4	1280.6	1295	1268.6	1275	1273.4	1281.6	1285	1275.4	1277.2	1277.2
465.105	12735.1	1036.3	1369.05	1326.12	1333.92	1293.52	1340.92	1307.52	1290.72	1308.92	1281.12	1308.72	1284.32	1292.72	1291.92	1269.32	1271.72	1270.12	1270.12
465.372	12546.4	1039.68	1353.79	1373.06	1312.26	1278.86	1317.26	1264.66	1294.26	1274.26	1246.66	1258.86	1227.26	1261.66	1254.46	1276.06	1258.46	1263.26	1263.26
465.638	12280.5	1038.74	1320.37	1269.5	1303.3	1273.5	1265.1	1245.9	1256.1	1242.3	1240.7	1254.5	1233.5	1264.3	1253.5	1249.5	1234.7	1198.9	1198.9
465.904	12254.1	1031.46	1331.77	1300.24	1264.24	1263.64	1262.84	1248.44	1241.04	1267.64	1236.44	1250.24	1227.64	1274.24	1249.84	1241.44	1235.64	1227.84	1227.84
466.17	12171.3	1035.36	1323.62	1291.82	1255.62	1258.62	1276.42	1253.42	1264.82	1257.62	1221.42	1242.22	1250.62	1228.82	1250.42	1266.02	1259.82	1232.22	1232.22
466.437	12023.6	1041.98	1305.23	1272.96	1273.36	1297.36	1264.96	1218.56	1229.56	1277.76	1234.76	1226.96	1226.36	1240.56	1205.96	1222.96	1247.36	1235.16	1235.16
466.703	11969.2	1035.84	1322.5	1265.7	1261.5	1268.5	1271.5	1260.7	1280.9	1236.5	1235.9	1247.1	1228.7	1223.5	1224.7	1226.7	1243.9	1233.7	1233.7
466.969	11916.4	1039.88	1319.72	1300.52	1257.72	1275.92	1258.92	1248.42	1266.52	1265.32	1256.12	1192.32	1247.32	1270.12	1220.12	1210.52	1226.32	1231.32	1231.32
467.235	11688.9	1044.54	1274.13	1237.46	1242.66	1225.66	1231.46	1222.06	1235.66	1215.06	1181.26	1193.66	1181.26	1217.46	1202.26	1184.66	1199.86	1194.46	1194.46
467.501	11871.9	1038.18	1311.87	1252.54	1281.54	1236.54	1217.74	1233.54	1239.54	1235.94	1233.34	1220.94	1217.34	1254.54	1233.14	1202.74	1231.74	1218.74	1218.74
467.767	11698.4	1030.5	1310.8	1285.6	1279	1247.2	1256.8	1239.2	1268.8	1216.4	1228.2	1238.6	1212	1221.6	1191	1244	1233	1193.4	1193.4
468.033	11582.6	1027.14	1304.53	1260.86	1263.26	1238.06	1247.86	1224.66	1272.26	1212.46	1229.06	1242.26	1174.06	1173.66	1214.06	1207.26	1201.86	1200.86	1200.86
468.299	11393.1	1034.54	1287.88	1245.48	1233.28	1214.08	1226.28	1231.48	1234.68	1225.48	1212.28	1219.28	1191.88	1178.88	1199.48	1205.88	1229.28	1237.88	1237.88
468.564	11450.2	1032.5	1289.02	1278.42	1219.42	1230.62	1238.42	1224.82	1215.22	1207.02	1211.42	1206.42	1156.42	1167.82	1222.62	1228.42	1217.82	1194.62	1194.62
468.83	11283.4	1032.04	1282.59	1238.32	1210.32	1229.12	1237.72	1204.52	1186.52	1218.92	1212.12	1175.72	1165.52	1193.72	1201.12	1165.32	1177.12	1180.32	1180.32
469.096	11187.6	1035.14	1274.97	1251.44	1203.04	1217.84	1202.64	1200.64	1180.44	1143.44	1180.84	1201.64	1188.24	1169.04	1160.84	1174.24	1196.24	1200.44	1200.44
469.362	11150.6	1037.56	1252.57	1250.3	1214.9	1183.5	1191.5	1180.7	1222.5	1182.1	1195.1	1196.7	1167.7	1182.9	1164.3	1196.1	1148.7	1194.7	1194.7
469.627	11077.8	1033.8	1256.89	1226.36	1203.36	1210.96	1177.96	1175.56	1191.76	1196.36	1171.16	1175.16	1184.36	1161.76	1186.16	1176.36	1129.16	1170.36	1170.36
469.893	11116.3	1044.08	1301.85	1221.52	1214.32	1241.72	1224.12	1200.12	1209.72	1217.32	1181.92	1210.52	1175.12	1204.32	1200.32	1190.72	1175.92	1166.12	1166.12
470.158	11116.1	1042.46	1289.35	1260.22	1271.42	1238.02	1205.82	1224.42	1211.82	1235.22	1200.22	1239.82	1209.82	1173.62	1229.42	1207.02	1225.82	1156.82	1156.82
470.424	10895.8	1069.02	1285.34	1234.14	1210.54	1204.94	1180.14	1192.94	1191.34	1194.94	1169.14	1221.94	1159.94	1142.54	1172.94	1170.54	1173.74	1169.34	1169.34
470.689	10940.9	1037.9	1277.08	1268.48	1214.88	1238.48	1214.08	1179.08	1206.08	1199.48	1187.68	1202.48	1160.68	1160.48	1164.88	1156.68	1194.68	1147.88	1147.88
470.954	10801.6	1028.96	1269.03	1217.16	1246.36	1200.36	1221.16	1173.76	1195.36	1162.56	1216.76	1176.16	1199.16	1185.36	1149.96	1168.76	1161.76	1139.96	1139.96
471.22	10696	1030.22	1253.36	1243.16	1195.56	1203.56	1158.96	1130.16	1167.36	1183.36	1182.76	1158.96	1179.56	1171.16	1171.76	1139.56	1181.96	1174.36	1174.36
471.485	10713.5	1035.06	1272.41	1226.88	1202.28	1196.68	1198.08	1204.28	1213.08	1170.48	1198.28	1186.88	1190.88	1163.08	1166.08	1167.48	1163.48	1164.28	1164.28
471.75	10715.2	1034.62	1253.56	1199.96	1230.56	1227.56	1181.36	1207.96	1201.96	1169.76	1205.76	1187.96	1173.76	1161.56	1160.56	1177.96	1138.56	1150.36	1150.36
472.015	10608.6	1034.32	1273.73	1259.56	1259.66	1192.66	1217.06	1208.26	1178.46	1183.66	1172.06	1172.66	1187.06	1150.06	1176.06	1155.86	1190.06	1164.06	1164.06
472.28	10616.4	1035.9	1267.25	1261.85	1190.45	1175.45	1207.05	1177.05	1198.65	1176.85	1155.25	1177.65	1177.65	1189.65	1167.65	1222.25	1165.45	1187.65	1187.65
472.545	10487.6	1038.2	1254.81	1213.14	1217.74	1235.94	1192.14	1180.54	1185.94	1156.74	1171.54	1182.94	1158.94	1158.94	1156.14	1168.74	1177.94	1160.74	1160.74
472.81	10429.2	1043.04	1270.48	1239.88	1177.28	1208.48	1206.28	1169.28	1168.48	1159.48	1156.48	1156.48	1141.88	1158.08	1168.08	1164.68	1141.08	1139.28	1139.28
473.075	10434.3	1028.38	1270.26	1243.26	1173.46	1213.06	1185.46	1208.46	1172.46	1191.26	1173.46	1186.66	1137.66	1175.86	1172.46	1206.46	1149.86	1181.86	1181.86
473.34	10375.5	1044.92	1275.19	1271.72	1207.12	1233.92	1208.92	1189.12	1208.12	1195.12	1178.32	1152.12	1174.92	1135.72	1188.52	1177.52	1170.12	1196.32	1196.32
473.605	10408.3	1041.84	1269.01	1263.88	1186.48	1219.88	1202.68	1207.88	1211.28	1233.48	1208.08	1171.88	1203.28	1148.68	1187.28	1155.48	1172.88	1190.28	1190.28
473.869	10335.1	1035.48	1273.83	1247.03	1225.83	1209.63	1180.23	1181.43	1202.23	1199.83	1187.23	1188.83	1178.23	1163.23	1158.43	1154.03	1152.03	1188.63	1188.63
474.134	10361.3	1032.34	1278.95	1207.48	1252.88	1199.88	1228.48	1183.88	1210.08	1190.48	1198.08	1193.88	1151.08	1190.48	1201.08	1196.88	1189.68	1155.88	1155.88
474.399	10292	1040.24	1296.06	1224.06	1205.26	1199.46	1198.66	1175.46	1185.26	1198.46	1179.06	1150.46	1168.46	1182.66	1168.66	1159.26	1163.66	1148.86	1148.86
474.663	10273.1	1047.4	1294.98	1228.78	1207.18	1216.58	1201.18	1205.58	1169.18	1188.38	1182.78	1177.98	1185.98	1184.58	1161.78	1196.78	1170.18	1165.18	1165.18
474.928	10243.8	1039.16	1301.59	1289.52	1238.52	1232.72	1218.72	1233.72	1227.92	1194.52	1189.72	1205.92	1193.92	1216.32	1192.52	1185.32	1169.32	1200.32	1200.32
475.192	10164.9	1035.66	1263.77	1245.1	1226.9	1177.5	1208.3	1197.7	1173.5	1205.3	1173.1	1153.5	1185.9	1190.9	1192.9	1158.3	1173.5	1170.1	1170.1
475.457	10254.6	1027.68	1290.56	1255.36	1189.16	1193.76	1225.36	1171.56	1208.16	1194.76	1192.16	1192.36	1190.56	1180.36	1195.56	1161.16	1184.96	1135.36	1135.36
475.721	10234.6	1032.36	1310.7	1266.5	1218.5	1236.3	1198.5	1240.1	1173.1	1199.9	1206.7	1202.3	1183.5	1172.7	1159.9	1173.1	1172.9	1160.7	1160.7
475.985	10273.7	1026.74	1303.39	1249.66	1258.46	1265.46	1264.66	1201.66	1199.66	1240.26	1209.86	1195.86	1225.66	1253.86	1187.26	1173.26	1175.26	1197.86	1197.86
476.25	10338.7	1034.68	1312.21	1247.08	1242.08	1247.08	1241.28	1208.28	1236.88	1241.88	1195.48	1205.08	1171.68	1229.48	1191.68	1181.88	1201.88	1166.68	1166.68
476.514	10362.4	1036.12	1314.05	1269.32	1252.92	1259.52	1242.32	1240.92	1245.92	1265.12	1235.32	1230.12	1173.92	1204.32	1221.52	1188.32	1205.92	1194.52	1194.52
476.778	10455.6	1039.54	1324.38	1252.78	1240.78	1264.78	1266.78	1230.98	1241.18	1253.78	1206.78	1210.38	1265.58	1210.78	1208.98	1241.18	1205.18	1234.98	1234.98
477.042	10480.3	1040.1	1335.87	1248.87	1264.67	1246.87	1234.67	1237.07	1242.07	1223.27	1233.87	1203.07	1227.27	1221.07	1193.07	1203.27	1198.07	1209.27	1209.27
477.306	10628.3	1033.62	1369.89	1309.56	1334.96	1294.76	1283.56	1257.16	1221.36	1289.26	1238.96	1242.96	1278.56	1228.16	1266.56	1265.16	1249.16	1242.56	1242.56
477.57	10558.1	1029.38	1385.06	1300.66	1276.26	1274.86	1271.66	1269.66	1258.26	1244.86	1210.86	1248.86	1247.86	1249.26	1263.46	1257.06	1225.46	1201.86	1201.86
477.834	10622	1037.92	1365.15	1325.22	1267.02	1278.22	1312.22	1297.42	1250.82	1265.22	1258.22	1254.22	1250.82	1249.42	1245.92	1231.42	1244.02	1235.42	1235.42
478.098	10753.8	1035.28	1399.79	1315.46	1310.06	1296.86	1269.66	1290.26	1265.26	1280.86	1257.66	1273.46	1247.46	1249.66	1246.86	1263.26	1264.86	1260.46	1260.46
478.362	10730.5	1038.66	1392.94	1358.94	1291.34	1297.74	1266.74	1274.54	1315.14	1300.34	1267.34	1270.54	1247.34	1287.34	1285.54	1235.34	1268.94	1254.54	1254.54
478.626	11036.7	1029.1	1441.24	1354.64	1369.84	1342.64	1350.44	1347.04	1326.24	1339.44	1308.64	1316.44	1326.04	1312.44	1278.84	1310.44	1310.64	1297.04	1297.04
478.89	10958.1	1035.78	1436.36	1314.36	1377.36	1343.36	1340.76	1321.56	1307.56	1345.36	1342.16	1287.96	1268.56	1304.16	1333.96	1287.56	1275.76	1256.16	1256.16
479.153	11088.4	1032.78	1465.49	1412.62	1409.22	1343.42	1333.82	1312.22	1313.82	1361.22	1301.02	1343.02	1330.82	1335.22	1336.62	1323.62	1285.02	1303.82	1303.82
479.417	11133.5	1044.36	1464.57	1407.84	1381.04	1354.64	1354.44	1333.44	1370.44	1344.44	1309.24	1327.44	1339.04	1309.24	1296.44	1336.44	1301.24	1319.24	1319.24
479.681	11266.8	1035.68	1473.71	1431.24	1348.24	1369.24	1361.24	1384.84	1353.24	1338.24	1352.84	1331.04	1328.64	1324.24	1334.04	1326.44	1308.04	1327.04	1327.04
479.944	11401.1	1038.54	1478.47	1466.34	1399.14	1425.54	1391.94	1407.54	1376.74	1398.54	1347.54	1343.54	1367.54	1337.94	1354.14	1350.54	1365.34	1356.14	1356.14
480.208	11477.7	1033.26	1519.16	1453.36	1458.36	1396.36	1409.16	1386.56	1353.16	1379.76	1363.96	1364.36	1369.16	1368.96	1388.16	1354.96	1389.96	1367.96	1367.96
480.471	11500.4	1034.44	1534.67	1491.14	1444.34	1430.94	1422.14	1412.34	1375.94	1408.74	1412.74	1393.54	1400.54	1380.14	1384.74	1358.34	1376.74	1352.34	1352.34
480.734	11539.4	1043.88	1539.29	1481.42	1414.22	1473.42	1429.62	1444.22	1405.42	1391.22	1410.22	1390.42	1374.82	1394.62	1395.82	1378.62	1376.02	1368.02	1368.02
480.998	11647.5	1036.3	1571.18	1480.38	1487.98	1430.78	1425.98	1458.98	1434.78	1443.58	1404.58	1440.18	1389.18	1410.58	1394.98	1406.98	1354.18	1401.18	1401.18
481.261	11911.1	1037.48	1589.01	1541.54	1493.14	1499.54	1477.14	1438.14	1481.74	1471.74	1445.74	1446.94	1415.94	1424.94	1407.94	1404.74	1413.14	1413.14	1413.14
481.524	11923.7	1037.42	1612.96	1516.96	1522.56	1528.36	1526.76	1500.16	1464.36	1487.16	1448.16	1457.36	1463.16	1465.56	1477.16	1459.16	1422.96	1410.96	1410.96
481.787	11986.2	1041.76	1617.15	1536.08	1538.48	1539.48	1499.28	1466.88	1473.08	1526.68	1521.68	1467.88	1460.28	1429.48	1439.68	1450.08	1479.08	1438.48	1438.48
482.051	12246.3	1040.94	1636.73	1569.8	1557.2	1512.6	1542	1526.2	1520	1490.6	1509.4	1511	1500.2	1483	1473.4	1502	1476	1488.8	1488.8
482.314	12297	1033.76	1666.88	1569.48	1553.28	1563.28	1566.28	1547.68	1538.28	1500.08	1518.68	1491.08	1489.88	1487.48	1471.88	1458.08	1457.28	1482.68	1482.68
482.577	12406.5	1027.44	1693.97	1608.37	1590.17	1539.17	1563.37	1562.57	1533.37	1540.97	1534.17	1539.37	1526.17	1494.17	1501.17	1526.17	1510.97	1488.37	1488.37
482.84	12674.9	1030.94	1753.17	1644.84	1653.64	1620.84	1625.04	1580.24	1566.04	1606.24	1582.64	1550.04	1611.64	1550.24	1526.24	1588.64	1533.64	1542.84	1542.84
483.102	12501.2	1028.89	1729.54	1647.14	1601.94	1607.74	1609.34	1581.94	1561.54	1583.94	1557.74	1539.74	1564.14	1543.14	1526.94	1543.94	1506.54	1538.54	1538.54
483.365	12715.6	1026.98	1779.46	1659.86	1644.86	1628.66	1604.06	1641.86	1617.86	1600.86	1595.26	1569.86	1561.06	1581.86	1550.66	1617.26	1562.66	1566.86	1566.86
483.628	12905.9	1042.68	1803.66	1709.66	1692.86	1674.26	1665.06	1641.66	1650.66	1662.66	1621.46	1641.26	1614.46	1633.06	1609.46	1571.86	1590.26	1580.06	1580.06
483.891	12874	1031.84	1802.53	1737.6	1695.6	1689	1648	1644.2	1664.2	1639.6	1628	1607.6	1644.8	1616	1609.4	1622.8	1598.4	1574	1574
484.154	13190.5	1041.6	1851.33	1765.06	1717.26	1697.26	1698.06	1679.26	1686.66	1684.46	1688.46	1617.06	1633.86	1660.46	1648.46	1639.46	1626.86	1641.06	1641.06
484.416	13314.3	1037.18	1857.48	1776.88	1782.68	1721.88	1741.48	1718.68	1691.68	1677.28	1711.28	1697.68	1686.08	1673.48	1679.88	1647.68	1651.08	1674.88	1674.88
484.679	13283.3	1040.28	1870.02	1783.82	1758.22	1715.42	1738.82	1723.42	1714.02	1719.82	1653.62	1653.02	1658.82	1698.02	1670.42	1634.62	1676.62	1669.62	1669.62
484.941	13597.6	1037.92	1917.76	1818.36	1822.16	1765.56	1766.16	1778.36	1755.36	1746.56	1769.96	1723.36	1749.36	1700.36	1683.16	1717.56	1722.36	1710.26	1710.26
485.204	13614.5	1027.32	1933.34	1841.14	1835.54	1757.34	1786.74	1773.14	1729.34	1774.74	1782.94	1716.94	1719.34	1683.34	1719.94	1713.54	1685.34	1655.74	1655.74
485.466	13767.4	1026.58	1960.86	1869.06	1860.86	1856.86	1824.06	1772.66	1754.06	1754.26	1748.66	1760.46	1778.86	1746.86	1750.46	1755.86	1769.66	1727.46	1727.46
485.729	13726.4	1039.34	1960.92	1891.12	1861.12	1827.32	1785.32	1766.12	1794.72	1763.12	1792.32	1819.12	1749.32	1734.12	1754.32	1723.52	1752.12	1741.52	1741.52
485.991	13966	1015.02	2008.59	1904.22	1862.62	1899.42	1887.62	1814.82	1826.82	1821.02	1851.82	1822.02	1806.62	1802.22	1858.62	1759.02	1800.62	1792.82	1792.82
486.253	14150.9	1030.83	2012.39	1932.02	1901.72	1914.02	1868.82	1860.72	1868.42	1845.02	1835.72	1797.52	1814.82	1785.42	1813.42	1792.02	1776.82	1781.62	1781.62
486.516	14360.2	1046.94	2084.41	1953.28	1977.68	1937.88	1917.88	1892.88	1878.08	1900.48	1872.48	1855.28	1842.48	1859.28	1813.48	1820.88	1797.08	1807.28	1807.28
486.778	14360.1	1039.34	2069.93	1955.86	1960.86	1946.06	1899.26	1890.86	1870.06	1860.06	1895.66	1865.86	1846.86	1854.66	1832.66	1818.26	1843.06	1847.86	1847.86
487.04	14644.7	1040.36	2127.48	2037.68	2013.08	1967.48	1968.28	1885.28	1976.88	1934.28	1907.68	1920.28	1882.48	1892.48	1837.28	1896.08	1840.68	1860.48	1860.48
487.302	14709.7	1033.22	2130.97	2039.24	2002.64	1962.24	1988.84	1959.04	1914.24	1948.24	1911.84	1891.84	1910.04	1875.94	1903.84	1854.44	1876.44	1854.04	1854.04
487.564	14827.2	1033.56	2191.78	2097.18	2015.58	2011.58	1970.58	1945.38	1984.78	1951.18	1961.98	1904.58	1944.18	1926.58	1889.18	1918.38	1889.58	1893.38	1893.38
487.826	15072.3	1033.8	2219.74	2114.54	2068.74	2039.74	2055.94	1988.54	2036.94	1997.74	1972.14	1927.94	1937.14	1932.94	1946.34	1944.14	1913.34	1896.14	1896.14
488.088	15093.7	1035.34	2252.95	2114.62	2098.42	2028.82	2021.22	2005.62	2003.22	2011.02	2013.02	1959.02	1985.42	1967.42	1956.22	1970.62	1952.62	1953.02	1953.02
488.35	15289.4	1030.16	2271.93	2110.26	2125.06	2075.46	2049.06	2032.86	2044.06	2052.26	2049.26	2015.06	2013.66	1971.26	1950.26	1961.06	1985.66	1959.66	1959.66
488.612	15356	1026.58	2276.39	2174.92	2123.12	2082.32	2081.32	2070.92	2044.12	2044.72	2019.72	2032.72	2010.92	2022.32	2024.72	1962.12	1966.52	1986.12	1986.12
488.873	15637.7	1040.52	2340.67	2185.94	2151.74	2125.14	2158.34	2102.94	2052.94	2087.94	2084.34	2099.54	1993.14	2021.34	2046.34	2024.34	2070.54	2022.74	2022.74
489.135	15658.5	1035.52	2335.55	2199.42	2172.82	2142.62	2159.02	2125.22	2155.82	2117.22	2072.62	2055.82	2078.82	2105.02	2016.62	2007.22	2011.22	2038.62	2038.62
489.397	15902	1033.36	2367.01	2237.94	2209.54	2182.34	2142.34	2110.34	2153.54	2141.74	2092.94	2121.74	2098.34	2076.54	2070.94	2073.34	2059.54	2089.74	2089.74
489.658	16112.9	1039.86	2439.48	2254.68	2251.88	2242.08	2215.88	2149.88	2202.28	2153.88	2152.68	2184.28	2097.48	2138.88	2113.08	2130.28	2087.28	2114.28	2114.28
489.92	16315.7	1042.12	2478.83	2285.56	2285.96	2287.96	2264.36	2207.36	2215.56	2189.56	2183.36	2153.56	2144.56	2146.76	2174.36	2137.56	2117.76	2108.36	2108.36
490.181	16500.1	1045.42	2493.33	2342.66	2309.06	2273.86	2282.46	2235.26	2186.26	2212.86	2255.86	2211.66	2196.66	2181.86	2177.46	2167.46	2164.06	2130.86	2130.86
490.443	16623.8	1045.42	2497.52	2330.12	2317.12	2288.92	2289.32	2293.12	2264.92	2254.12	2207.32	2179.32	2197.92	2255.92	2190.52	2197.52	2169.72	2167.12	2167.12
490.704	16684	1039.2	2545.45	2373.78	2346.18	2356.38	2347.78	2308.98	2298.58	2249.58	2273.58	2246.58	2251.38	2234.18	2189.18	2231.78	2198.98	2165.58	2165.58
490.966	16896.7	1039.74	2600.77	2443.9	2366.3	2381.5	2373.1	2334.9	2297.9	2302.5	2271.7	2303.7	2307.3	2235.5	2234.5	2238.1	2237.3	2238.5	2238.5
491.227	17126.1	1028.92	2637.79	2462.52	2426.72	2374.92	2411.12	2327.72	2373.92	2358.32	2346.72	2344.32	2323.12	2296.52	2263.52	2278.52	2265.72	2276.72	2276.72
491.488	17251.7	1038.1	2637.06	2524.86	2414.66	2431.06	2369.26	2401.26	2328.66	2345.46	2359.06	2339.86	2271.06	2316.66	2306.26	2271.26	2302.26	2277.66	2277.66
491.749	17444.2	1045.56	2673.61	2490.88	2482.88	2474.28	2463.08	2410.48	2411.28	2350.68	2374.48	2365.48	2331.08	2340.08	2352.88	2330.88	2302.68	2307.08	2307.08
492.01	17616.9	1030.22	2714.3	2559.5	2526.3	2504.1	2471.5	2491.3	2439.7	2431.7	2438.7	2439.3	2361.1	2379.3	2384.3	2360.9	2317.3	2374.5	2374.5
492.271	17792.2	1039.92	2762.61	2623.94	2563.74	2530.34	2534.14	2474.94	2473.14	2450.34	2457.74	2418.14	2370.74	2441.74	2390.74	2343.34	2366.54	2380.34	2380.34
492.533	18010.4	1031.34	2793.58	2615.98	2572.58	2549.38	2501.48	2517.78	2477.18	2469.58	2455.58	2487.78	2423.58	2397.38	2431.18	2409.38	2420.78	2428.38	2428.38
492.793	18186.8	1039.06	2851.08	2638.21	2612.81	2611.21	2577.81	2559.41	2493.61	2500.41	2502.61	2504.61	2496.41	2478.21	2428.21	2443.41	2451.01	2440.61	2440.61
493.054	18333	1027.89	2878.1	2696.7	2648.5	2607.7	2619.5	2549.9	2547.5	2495.5	2580.5	2500.3	2508.5	2483.3	2481.3	2474.7	2478.1	2469.1	2469.1
493.315	18475.6	1044.19	2909.75	2721.08	2696.48	2677.68	2659.28	2631.88	2567.88	2580.08	2555.08	2559.68	2523.28	2506.08	2562.08	2508.88	2493.28	2491.08	2491.08
493.576	18755.4	1045.24	2936.85	2751.12	2726.72	2666.72	2630.32	2632.32	2606.12	2587.12	2577.12	2596.72	2557.52	2598.52	2540.12	2508.72	2540.52	2487.92	2487.92
493.837	18870.4	1038.34	2966.99	2844.12	2726.52	2753.52	2684.92	2720.72	2691.32	2647.92	2620.52	2602.32	2569.92	2592.12	2556.52	2546.72	2541.92	2571.92	2571.92
494.098	19082.7	1032.46	3033.95	2851.52	2809.22	2749.22	2755.62	2707.82	2717.22	2674.22	2703.62	2643.62	2658.22	2619.02	2613.82	2592.82	2622.42	2562.62	2562.62
494.358	19311.7	1038.42	3083.59	2880.06	2811.46	2789.86	2732.06	2782.26	2715.46	2737.86	2705.06	2703.06	2695.66	2643.26	2645.06	2653.26	2616.26	2599.86	2599.86
494.619	19488.5	1033.7	3093.72	2885.92	2903.52	2827.32	2803.52	2798.92	2767.12	2782.12	2747.32	2726.12	2711.12	2695.12	2670.52	2658.92	2629.52	2643.12	2643.12
494.879	19568.4	1032.78	3141.89	2981.16	2894.76	2858.56	2820.36	2791.16	2812.76	2786.96	2736.16	2730.76	2696.96	2737.76	2713.76	2690.56	2691.16	2698.76	2698.76
495.14	19827.8	1045.12	3201.02	3035.62	2931.42	2938.42	2851.62	2900.62	2848.82	2868.82	2834.02	2814.22	2796.82	2749.02	2785.62	2777.02	2752.02	2723.62	2723.62
495.4	20080.9	1038.96	3263.15	3101.62	3051.42	2976.02	2926.82	2873.02	2894.02	2893.22	2894.02	2873.42	2830.42	2843.02	2820.42	2749.82	2786.82	2786.22	2786.22
495.661	20109.8	1035.5	3259.01	3047.14	3007.94	2987.74	2928.74	2949.34	2896.54	2900.34	2899.74	2835.74	2849.34	2809.14	2794.14	2822.94	2814.54	2771.54	2771.54
495.921	20342.7	1042.66	3300.91	3069.84	3042.04	2990.24	2997.24	2993.64	2954.84	2976.04	2931.04	2933.24	2880.24	2875.64	2845.04	2825.44	2829.44	2790.64	2790.64
496.181	20488.9	1049.46	3356.44	3117.04	3118.84	3018.24	3014.44	3016.64	2988.24	2920.24	2986.24	2907.04	2944.04	2911.44	2891.04	2895.84	2875.84	2887.84	2887.84
496.442	20825.7	1044.34	3438.21	3158.88	3110.08	3086.28	3078.28	3048.28	3053.08	2978.48	2986.68	2980.88	2974.88	2961.68	2959.88	2963.68	2935.48	2916.28	2916.28
496.702	21008.7	1027.82	3465.61	3244.74	3174.54	3130.54	3122.54	3063.94	3059.94	3040.34	3015.54	2977.94	3048.94	2999.54	2967.14	2979.94	2988.54	2940.34	2940.34
496.962	21119.8	1042.86	3502.06	3237.46	3214.66	3190.26	3158.66	3130.86	3120.46	3118.46	3078.26	3021.46	3045.26	3000.86	3012.46	2988.86	3008.26	3014.86	3014.86
497.222	21356.8	1038.34	3564.05	3345.72	3260.72	3210.72	3208.72	3156.12	3166.52	3112.32	3102.32	3121.72	3100.12	3032.12	3072.12	3073.12	3010.52	3052.12	3052.12
497.482	21508.3	1040.54	3626.89	3357.02	3303.42	3300.42	3198.62	3188.62	3238.02	3147.42	3136.42	3122.22	3123.62	3104.02	3104.02	3092.42	3057.22	3044.32	3044.32
497.742	21586.8	1037.96	3627.91	3389.58	3328.78	3314.38	3303.98	3256.78	3221.38	3202.58	3202.18	3171.58	3123.38	3133.58	3096.78	3138.98	3104.18	3080.58	3080.58
498.002	21917.5	1027.96	3709.67	3494.2	3372.8	3337.4	3310.8	3315.8	3325.4	3254.6	3261.2	3204.8	3207	3179.2	3192	3162.8	3187.4	3108.8	3108.8
498.262	22165.7	1046.1	3764.63	3470.7	3458.3	3383.7	3390.3	3357.5	3345.9	3339.7	3268.7	3278.3	3261.9	3255.9	3233.3	3192.3	3193.9	3218.5	3218.5
498.522	22279	1043.02	3791.18	3570.18	3489.38	3453.98	3407.18	3433.18	3383.58	3349.58	3359.78	3294.78	3314.38	3288.78	3265.38	3297.98	3242.78	3207.98	3207.98
498.781	22443.3	1036.5	3881.03	3556.1	3548.5	3511.7	3417.5	3420.3	3410.9	3405.5	3369.5	3314.7	3326.9	3309.9	3300.3	3304.9	3274.3	3325.3	3325.3
499.041	22601.5	1033.2	3882.31	3563.44	3543.84	3541.24	3484.44	3427.84	3442.64	3419.84	3391.84	3393.04	3352.04	3361.84	3325.24	3328.84	3293.04	3287.04	3287.04
499.301	22925.4	1042.7	3957.93	3664.8	3606.6	3575.4	3537	3506.2	3496	3456.2	3477.8	3412.6	3406.8	3432.8	3383.8	3386.8	3358.6	3296	3296
499.56	23103.6	1039.38	3983.47	3749	3668.8	3610.4	3579.6	3556.8	3529.2	3516.8	3478.8	3460.4	3467.4	3486	3407.2	3420.2	3434.8	3337.4	3337.4
499.82	23135.8	1040.12	4002.77	3744.44	3611.44	3576.64	3602.44	3581.64	3571.24	3517.64	3488.24	3479.64	3474.04	3452.44	3426.24	3457.64	3400.24	3411.04	3411.04
500.079	23392.4	1042.26	4090.12	3782.72	3726.92	3673.32	3667.12	3604.72	3570.72	3559.52	3528.52	3539.52	3559.92	3496.12	3468.12	3504.52	3469.12	3458.12	3458.12
500.339	23650.3	1037.42	4125.47	3843	3805	3763.6	3680.4	3685.2	3638.8	3626.6	3612.8	3574.6	3581.6	3545	3553	3521.4	3542.4	3522.8	3522.8
500.598	23886.1	1036.6	4215.7	3866.5	3873.9	3817.9	3738.3	3751.5	3690.9	3718.5	3709.1	3666.7	3632.3	3581.7	3616.1	3564.1	3602.1	3575.5	3575.5
500.858	24003.8	1030.74	4224.87	3873.14	3893.34	3784.34	3822.94	3758.54	3726.04	3726.34	3703.74	3698.34	3647.74	3606.94	3629.14	3572.34	3591.14	3558.94	3558.94
501.117	24347.7	1045.8	4317.83	4012.5	3917.1	3860.3	3875.1	3828.7	3799.9	3793.5	3756.1	3743.3	3707.7	3679.3	3673.5	3677.5	3621.3	3655.7	3655.7
501.376	24540.9	1041.96	4375.17	4055.64	3972.04	3845.64	3878.44	3815.44	3835.84	3799.44	3753.04	3813.04	3751.64	3757.44	3727.44	3695.44	3701.64	3654.84	3654.84
501.635	24637.9	1032.86	4371.05	4081.38	3989.38	3932.38	3940.38	3866.38	3863.38	3821.38	3823.98	3804.18	3780.18	3781.78	3774.98	3759.18	3724.98	3693.18	3693.18
501.895	24783.7	1038.6	4428.41	4168.74	4062.34	4035.14	4014.74	3987.74	3938.74	3944.54	3887.34	3862.94	3860.94	3841.14	3838.54	3817.54	3795.94	3755.34	3755.34
502.154	24927.3	1038.82	4485.69	4167.02	4098.42	4038.02	4016.42	3992.22	3961.22	3958.82	3893.62	3877.22	3878.42	3871.82	3868.22	3860.82	3861.82	3812.02	3812.02
502.413	24991.6	1041.44	4532.39	4188.46	4094.06	4080.06	4058.66	3986.06	3971.26	3976.66	3969.66	3907.46	3878.66	3892.86	3856.46	3875.66	3827.26	3824.66	3824.66
502.672	25533.6	1034.48	4622.35	4341.82	4199.82	4172.02	4095.42	4100.62	4098.62	4000.82	4073.42	4030.42	3951.02	3996.62	3961.22	3901.02	3937.02	3928.02	3928.02
502.931	25639.9	1044.5	4639.48	4291.48	4183.08	4159.48	4146.48	4152.68	4090.88	4126.48	4036.28	4058.68	3992.28	3998.68	3949.68	3979.48	3941.48	3955.68	3955.68
503.189	25704.2	1031.82	4692.83	4381.36	4289.76	4211.36	4179.36	4219.36	4120.56	4147.76	4070.56	4068.96	4039.16	4002.36	4004.16	3999.16	3956.16	3991.16	3991.16
503.448	26019.6	1039.58	4805.26	4413.06	4361.66	4279.06	4224.46	4243.26	4180.26	4170.06	4105.26	4086.26	4127.06	4021.86	4081.46	4068.46	4029.06	4017.86	4017.86
503.707	26159.6	1033.02	4805.17	4445.7	4435.7	4346.1	4295.5	4234.1	4243.3	4225.3	4171.3	4201.9	4178.3	4096.7	4123.1	4090.1	4066.1	4057.1	4057.1
503.966	26426.6	1044.62	4856.73	4490.8	4443	4376.4	4371.6	4310.6	4334.4	4264	4238.4	4241.2	4198.8	4197	4179.4	4140.6	4142.2	4093	4093
504.224	26532.7	1034.9	4926.24	4545.04	4471.44	4413.24	4416.44	4390.04	4324.44	4348.84	4254.44	4303.44	4221.44	4201.64	4171.04	4147.64	4181.64	4162.64	4162.64
504.483	26813.8	1039.92	4996.13	4618	4565.2	4566.8	4411.4	4458.4	4409	4389.4	4299.2	4348.4	4303.2	4295.6	4246.6	4268	4228.4	4222.4	4222.4
504.742	26992.3	1028.9	5068.92	4681.92	4532.92	4559.12	4477.52	4433.52	4480.32	4409.52	4412.52	4341.52	4385.32	4321.52	4342.72	4270.12	4267.52	4306.92	4306.92
505	27224	1037.72	5125.06	4712.26	4645.26	4574.26	4538.66	4469.26	4482.86	4443.66	4482.26	4409.46	4391.86	4328.06	4368.46	4349.06	4344.86	4343.26	4343.26
505.259	27189.8	1037.38	5151.36	4741.03	4607.03	4604.03	4580.03	4568.43	4563.03	4483.63	4470.23	4394.03	4427.43	4358.83	4379.03	4414.03	4331.43	4336.43	4336.43
505.517	27360	1034.08	5197.93	4815.4	4691.2	4677.6	4590.4	4598.2	4561.2	4557.2	4539.8	4480.4	4478.4	4433.4	4422	4427	4421.4	4379	4379
505.775	27571.1	1035.74	5236.39	4857.32	4791.52	4712.92	4644.92	4638.92	4639.72	4571.32	4601.72	4526.72	4584.52	4483.52	4446.72	4493.92	4461.72	4416.32	4416.32
506.034	27700.5	1030.04	5333.79	4965.46	4820.66	4774.46	4710.66	4724.66	4688.86	4650.86	4648.66	4604.26	4603.46	4525.46	4545.86	4549.86	4508.26	4456.06	4456.06
506.292	27940.6	1030.42	5392.45	4965.32	4865.52	4800.92	4822.92	4797.32	4754.52	4703.72	4652.52	4638.12	4636.32	4648.52	4608.32	4568.92	4586.72	4487.72	4487.72
506.55	28132.5	1028.14	5449.39	5066.92	4921.52	4943.52	4863.12	4807.12	4808.72	4767.92	4721.32	4716.32	4645.92	4689.92	4620.72	4672.32	4643.32	4571.92	4571.92
506.808	28223.6	1035.48	5480.73	5058.66	4988.66	4918.46	4843.46	4862.26	4807.26	4750.86	4780.46	4702.86	4726.46	4640.46	4677.06	4671.86	4668.06	4612.66	4612.66
507.066	28487	1046.66	5581.89	5156.82	5088.02	4960.42	4908.82	4876.22	4820.22	4881.22	4803.82	4817.62	4784.02	4776.62	4787.62	4752.22	4677.42	4670.02	4670.02
507.324	28684.5	1035.8	5636.19	5180.46	5145.26	5048.46	4953.66	4953.66	4921.26	4870.86	4905.06	4842.26	4801.66	4769.46	4767.46	4770.46	4721.46	4772.26	4772.26
507.582	28904.4	1039	5697.91	5211.04	5184.44	5052.44	5061.84	4936.24	4996.04	4955.44	4917.04	4890.44	4898.64	4795.84	4829.24	4826.44	4802.04	4782.84	4782.84
507.84	29026	1036.68	5732.11	5322.18	5238.58	5161.98	5099.98	5019.78	4996.78	4959.78	4968.78	4866.58	4838.78	4888.38	4864.58	4840.58	4852.38	4845.98	4845.98
508.098	29361.5	1031.2	5806.68	5378.08	5257.68	5164.28	5107.48	5013.68	5063.48	5021.08	5037.48	4960.48	4982.08	4941.28	4976.88	4905.08	4902.08	4796.68	4796.68
508.356	29506	1034.11	5858.25	5417.98	5299.38	5199.98	5177.98	5135.98	5137.18	5079.58	5045.58	5024.38	5030.18	5019.98	4980.58	4925.18	4982.78	4933.18	4933.18
508.614	29514.2	1032.7	5909.39	5402.26	5287.66	5255.86	5193.66	5228.66	5133.46	5097.06	5068.06	5048.06	5096.46	5078.26	5002.66	5004.66	4993.86	4990.06	4990.06
508.871	30050	1028.72	5999.97	5494.44	5405.04	5340.24	5377.24	5316.64	5209.84	5186.84	5170.04	5170.44	5174.84	5094.04	5093.04	5069.24	5085.24	5032.84	5032.84
509.129	30253.7	1037.22	6063.77	5544.3	5431.3	5383.9	5333.9	5288.9	5238.9	5225.7	5264.9	5177.7	5153.5	5178.3	5107.7	5124.7	5132.3	5152.9	5152.9
509.387	30465.1	1035.48	6080.53	5601.26	5541.26	5444.86	5388.46	5414.06	5313.86	5303.66	5275.86	5224.66	5299.06	5222.46	5184.06	5169.46	5184.26	5177.86	5177.86
509.644	30688	1033.72	6169.6	5660.3	5571.4	5504.4	5455.2	5385.2	5345	5327.2	5311.4	5296	5265.8	5274	5217.8	5194.2	5188	5186.2	5186.2
509.902	30703.1	1041.58	6221.49	5700.02	5626.22	5580.22	5530.22	5449.42	5456.82	5347.02	5384.82	5317.62	5307.82	5288.02	5260.82	5246.42	5242.62	5221.42	5221.42
510.159	30959.6	1033.7	6272.94	5789.04	5625.84	5598.44	5569.84	5462.64	5503.04	5497.84	5394.44	5453.24	5367.04	5336.04	5358.64	5283.44	5311.24	5284.44	5284.44
510.417	31191.5	1033.18	6358.23	5859.1	5726.9	5645.7	5563.7	5557.7	5502.3	5535.1	5490.1	5409.1	5395.5	5401.5	5374.5	5378.3	5359.7	5334.7	5334.7
510.674	31248.4	1029.76	6365.18	5906.78	5750.38	5698.98	5630.18	5626.38	5595.18	5555.38	5523.18	5491.38	5478.98	5422.78	5419.78	5379.98	5363.98	5384.18	5384.18
510.931	31618	1030.16	6484.77	5981.7	5868.3	5818.1	5723.9	5675.3	5694.1	5686.1	5641.9	5550.7	5621.1	5542.1	5523.5	5453.7	5472.3	5429.9	5429.9
511.189	31697.1	1027.96	6531.94	6017.34	5905.94	5811.54	5801.94	5760.34	5743.54	5650.34	5671.34	5609.14	5570.94	5529.34	5567.14	5519.54	5548.54	5516.74	5516.74
511.446	31801.7	1034.22	6579.83	6092.06	5921.46	5856.06	5834.26	5767.46	5783.86	5690.46	5675.86	5701.06	5694.06	5634.86	5613.06	5580.66	5561.26	5555.06	5555.06
511.703	32021.3	1030.16	6665.37	6126.64	6031.64	5943.44	5882.84	5789.44	5798.24	5773.84	5782.24	5702.64	5675.64	5675.04	5675.84	5670.04	5625.24	5589.64	5589.64
511.96	32271.7	1034.9	6714.47	6241.54	6115.54	6005.54	5982.74	5922.54	5898.74	5846.94	5843.14	5867.94	5788.94	5780.94	5765.14	5714.14	5671.74	5664.34	5664.34
512.217	32259.5	1034.5	6754.57	6209.1	6084.1	6055.9	6031.5	5997.3	5891.7	5888.1	5866.7	5803.1	5810.1	5798.9	5810.5	5714.9	5720.7	5733.5	5733.5
512.474	32373.9	1040.56	6863.4	6321.4	6208.8	6121.2	6068.2	6023.2	5908	5921	5931.4	5907	5816.2	5881.6	5840.6	5747.2	5797.2	5752.6	5752.6
512.731	32480.9	1033.2	6928.83	6378.5	6205.1	6130.3	6164.9	6051.3	6028.5	6005.3	5971.9	5937.5	5887.1	5868.7	5858.5	5851.1	5847.7	5841.9	5841.9
512.988	32737.1	1036.26	6988.25	6416.58	6335.38	6225.78	6178.78	6147.18	6106.58	6042.78	6034.18	6013.38	6007.18	6004.98	5887.38	5919.38	5909.58	5901.18	5901.18
513.245	32883.3	1041.32	7050.15	6468.08	6342.68	6234.28	6195.48	6179.88	6155.68	6128.28	6070.88	6040.88	6015.68	6022.88	5971.88	5959.48	5948.48	5924.08	5924.08
513.502	33054.3	1035.75	7111.43	6569.83	6420.03	6337.03	6245.23	6214.03	6223.63	6157.23	6101.83	6084.83	6034.43	6023.43	6051.43	6041.23	6003.23	5984.03	5984.03
513.758	33082.4	1036.98	7190.65	6601.32	6458.92	6397.32	6335.92	6287.92	6230.12	6264.12	6226.32	6144.52	6150.52	6146.72	6052.12	6100.72	6104.92	6031.12	6031.12
514.015	33207.8	1047.08	7223.82	6684.82	6526.62	6429.82	6429.62	6336.42	6298.82	6305.02	6252.22	6252.42	6226.62	6195.42	6148.22	6119.82	6112.62	6047.62	6047.62
514.272	33461.4	1045.18	7309.36	6752.76	6538.56	6554.56	6516.96	6395.76	6351.16	6300.16	6312.16	6261.96	6307.96	6244.96	6225.56	6237.56	6206.96	6160.36	6160.36
514.528	33561.8	1038.92	7374.59	6758.46	6641.86	6602.86	6534.46	6473.86	6429.66	6446.46	6375.06	6328.86	6257.26	6271.86	6241.26	6259.26	6258.26	6187.66	6187.66
514.785	33859.7	1034.02	7448.29	6888.02	6727.02	6644.82	6611.62	6534.22	6489.82	6479.62	6416.82	6419.02	6392.42	6368.22	6259.42	6319.62	6213.02	6226.32	6226.32
515.041	34111.4	1035.34	7558.77	7009.7	6865.3	6653.1	6726.7	6631.5	6514.9	6547.5	6463.3	6482.5	6430.7	6420.1	6371.3	6412.9	6357.1	6380.3	6380.3
515.297	34327.8	1047.66	7642.41	6988.08	6798.68	6802.88	6671.28	6679.48	6652.08	6594.68	6540.88	6574.88	6468.28	6502.68	6418.88	6390.88	6447.48	6411.28	6411.28
515.554	34442.6	1031.48	7683.43	6981.56	6911.36	6845.76	6741.36	6687.36	6672.36	6670.76	6591.56	6614.16	6576.96	6483.16	6525.76	6430.56	6410.16	6421.16	6421.16
515.81	34792.2	1037.98	7796.39	7070.52	6965.92	6899.72	6776.72	6732.52	6766.32	6704.92	6640.12	6692.92	6633.52	6567.92	6592.32	6535.52	6495.72	6514.52	6514.52
516.066	34698.7	1036.08	7797.44	7144.64	6977.84	6874.64	6813.84	6761.24	6733.64	6753.24	6617.84	6608.24	6593.04	6599.84	6602.04	6514.44	6510.24	6428.44	6428.44
516.323	34987.7	1041.44	7876.35	7234.02	7069.22	6977.62	6938.82	6838.62	6869.92	6834.62	6769.22	6739.22	6741.62	6691.22	6631.22	6660.82	6597.42	6614.22	6614.22
516.579	34973.7	1035.92	7900.51	7304.78	7083.38	7057.58	6933.18	6915.18	6867.38	6853.38	6795.78	6818.98	6758.78	6703.18	6646.78	6790.18	6686.58	6642.58	6642.58
516.835	35258.9	1036.21	8028.99	7332.26	7231.06	7127.26	7092.86	7066.66	6966.46	6981.86	6916.26	6848.06	6838.86	6837.66	6821.26	6786.46	6807.26	6760.86	6760.86
517.091	35329.5	1046.92	8089.71	7372.44	7266.64	7137.44	7143.24	7081.24	6936.84	6939.44	7040.04	6865.64	6870.84	6863.24	6798.64	6788.24	6811.44	6808.24	6808.24
517.347	35771.2	1040.5	8207.35	7483.42	7373.82	7233.22	7183.22	7134.82	7081.82	7030.02	6982.82	6959.42	6928.02	6917.42	6901.02	6893.82	6816.22	6843.22	6843.22
517.603	35720.3	1028.3	8211.61	7515.48	7415.28	7310.68	7239.08	7126.28	7090.28	7112.88	7068.88	7009.48	6983.68	6917.48	6902.08	6884.88	6872.48	6885.48	6885.48
517.859	35962.5	1033.32	8284.05	7557.38	7476.38	7357.78	7290.98	7163.58	7143.18	7131.58	7123.98	7074.98	6984.98	6990.58	6982.78	6958.78	6943.38	6971.38	6971.38
518.114	36057.5	1034.06	8340.19	7597.52	7506.92	7422.12	7309.12	7260.92	7238.32	7126.32	7206.72	7173.52	7071.52	7097.92	7007.62	7006.72	7011.12	6996.12	6996.12
518.37	36232.6	1047.84	8408.87	7695	7540.8	7446.6	7348.6	7339.2	7191.6	7230	7235	7215.2	7152	7146.2	7104	7044	6993.6	7025	7025
518.626	36366.4	1039.52	8520.34	7794.34	7602.14	7467.74	7438.54	7380.94	7325.54	7308.74	7310.14	7283.34	7226.14	7149.54	7120.34	7159.14	7169.54	7074.54	7074.54
518.882	36447.7	1036.38	8563.13	7784.46	7666.46	7584.46	7478.06	7437.46	7457.26	7308.06	7307.26	7346.46	7253.46	7199.86	7259.46	7131.06	7190.46	7051.26	7051.26
519.137	36813.2	1040.32	8650.08	7903.68	7745.08	7615.68	7568.68	7502.08	7529.28	7458.68	7407.18	7325.68	7365.08	7323.88	7272.28	7274.68	7243.48	7186.68	7186.68
519.393	36782.6	1036.1	8677.99	7925.86	7798.46	7717.86	7652.46	7581.06	7525.66	7516.66	7473.46	7427.86	7416.46	7333.46	7304.66	7325.46	7265.86	7303.86	7303.86
519.648	37138.7	1052.88	8761.16	8006.76	7885.76	7668.56	7714.96	7676.16	7597.76	7569.96	7535.96	7480.46	7501.16	7424.16	7468.96	7441.76	7403.96	7365.76	7365.76
519.904	37291.7	1036.18	8836.14	8097.34	7895.74	7788.14	7742.74	7622.14	7662.54	7523.74	7529.74	7537.14	7526.14	7436.54	7466.94	7453.74	7405.14	7406.94	7406.94
520.159	37357.3	1033.64	8873.07	8128.8	7918.6	7813	7737	7744	7668.6	7713.8	7523.4	7519.8	7508.4	7496	7451	7412.6	7500.4	7432.6	7432.6
520.415	37532.2	1037.8	8971.26	8127.66	8047.66	7868.86	7820.86	7782.46	7737.66	7718.66	7646.26	7637.86	7626.66	7553.06	7584.26	7483.66	7533.46	7415.46	7415.46
520.67	37727.1	1054.64	9019.43	8211.5	8106.1	7965.3	7924.3	7850.1	7889.5	7716.5	7736.1	7701.9	7678.5	7651.3	7589.1	7622.1	7597.7	7519.9	7519.9
520.925	37913.3	1035.32	9101.87	8270.2	8145	8059.2	8022.2	7905.8	7883	7896.8	7792.8	7763.4	7787.8	7706.4	7685.2	7739	7657.4	7642.6	7642.6
521.18	37966.9	1042.16	9150.28	8331.88	8135.08	8073.08	8010.68	7933.48	7850.88	7885.88	7847.28	7887.88	7753.08	7769.28	7707.28	7774.68	7661.08	7658.68	7658.68
521.436	38013.2	1029.94	9217.25	8383.52	8230.92	8092.72	8067.12	8010.92	7926.32	7919.52	7933.72	7858.12	7848.92	7864.72	7782.12	7761.32	7689.32	7751.72	7751.72
521.691	38430.3	1040.38	9312.75	8462.48	8330.68	8241.68	8236.28	8124.68	8051.48	8036.48	7963.68	7924.48	7934.88	7875.28	7872.48	7828.68	7788.08	7794.08	7794.08
521.946	38336.7	1039.36	9376.38	8480.38	8290.58	8303.38	8182.78	8159.78	8100.98	8038.58	8018.58	7998.58	7960.58	7963.58	7886.98	7903.18	7805.78	7835.18	7835.18
522.201	38426.4	1045.58	9446.67	8681.34	8397.14	8338.74	8298.34	8184.34	8132.54	8086.94	8045.74	8039.54	8048.14	8026.14	7996.34	7928.74	7915.94	7925.54	7925.54
522.456	38655.9	1035.04	9522.47	8649.14	8491.94	8369.24	8280.54	8256.14	8225.94	8131.14	8155.74	8122.94	8059.54	8024.54	7995.14	8038.14	7960.74	7985.74	7985.74
522.71	38730.8	1035.76	9593.63	8785.96	8546.16	8450.36	8403.96	8321.96	8315.56	8206.36	8249.56	8243.56	8116.16	8161.16	8068.16	8031.96	8010.56	8018.76	8018.76
522.965	38862.8	1040.36	9656.48	8866.88	8667.08	8495.48	8436.48	8373.48	8399.88	8316.28	8282.68	8190.88	8217.28	8187.28	8116.48	8158.68	8150.68	8096.08	8096.08
523.22	38956.3	1045.84	9702.48	8958.48	8716.68	8616.08	8498.28	8433.08	8347.28	8357.28	8300.88	8314.88	8292.48	8194.08	8246.48	8157.48	8213.48	8192.08	8192.08
523.475	39185.2	1042.26	9801.74	8972.94	8753.34	8603.94	8518.74	8475.14	8447.14	8418.94	8428.14	8369.74	8363.94	8313.14	8323.34	8306.14	8312.34	8202.14	8202.14
523.729	39233.8	1040.98	9873.77	8980.84	8865.24	8796.44	8627.84	8679.04	8534.64	8519.44	8456.44	8437.64	8399.04	8352.44	8341.04	8328.64	8293.64	8267.44	8267.44
523.984	39289.1	1041.04	9955.67	9075.2	8872	8773	8704.4	8652.6	8612.8	8572.2	8522.2	8400	8453.6	8359	8472.4	8365.4	8337.4	8332.8	8332.8
524.239	39541.3	1040.96	10053.3	9175.6	8977.8	8851.4	8756.4	8665	8731	8654.8	8628.4	8553.8	8483.8	8489.8	8452.4	8458.6	8395.8	8401.4	8401.4
524.493	39733.1	1041.52	10122.9	9290.8	9076.4	8945.4	8843.2	8800.2	8785	8650.4	8641.6	8660.6	8606.4	8590.6	8560.2	8545	8459.4	8447	8447
524.748	39816.8	1038.9	10177.1	9216.34	9107.34	8918.94	8878.54	8809.94	8822.34	8763.14	8718.94	8717.94	8654.14	8651.74	8557.94	8552.54	8579.74	8503.54	8503.54
525.002	39788.8	1037.12	10249.2	9306.45	9176.85	8950.45	8883.05	8838.25	8842.45	8770.65	8776.45	8725.65	8666.05	8644.85	8650.45	8647.45	8575.65	8578.85	8578.85
525.256	40108.6	1040.38	10345.6	9403.88	9225.88	9028.48	9046.48	8976.48	8881.88	8929.08	8808.08	8798.48	8767.88	8710.88	8685.88	8768.88	8693.08	8687.88	8687.88
525.511	40198.2	1035.86	10378.3	9437.74	9238.74	9135.34	9113.14	8950.14	8953.64	8942.74	8924.74	8864.74	8889.34	8764.14	8753.54	8706.74	8778.34	8681.14	8681.14
525.765	40275.7	1039.38	10431.7	9547.26	9232.86	9190.06	9091.26	9068.86	9061.66	8970.86	8953.06	8866.06	8865.66	8780.86	8828.26	8793.66	8821.06	8729.06	8729.06
526.019	40589.4	1033.09	10503.1	9605.86	9362.06	9273.46	9204.86	9119.46	9119.26	9047.46	9075.86	8911.86	8922.86	8925.06	8915.66	8901.46	8876.86	8830.46	8830.46
526.273	40357.7	1038.6	10583.2	9636.3	9458.3	9343	9183.7	9191.6	9110.3	9059.7	9058.3	8966.7	8917.3	8928.3	8879.1	8903.9	8870.1	8814.1	8814.1
526.527	40559.7	1033.66	10662.1	9799.6	9451	9379.8	9293.4	9234.2	9148.6	9063.6	9117.2	9058.6	9097.4	8993	8997.8	8950	8942.4	8929	8929
526.781	40633.8	1038.56	10720.4	9803.74	9506.94	9418.94	9368.94	9322.74	9236.34	9156.94	9166.34	9052.34	9022.34	9002.74	9051.94	9029.14	8976.74	9035.74	9035.74
527.035	40725.8	1026.4	10787.1	9777.8	9599.8	9466.4	9370.4	9274.4	9276.8	9198.8	9231.8	9144.8	9101.5	9060.8	9057.2	9057.6	8982.4	9026.4	9026.4
527.289	40663.5	1038.7	10730.3	9886	9582.8	9414.8	9438.2	9284.6	9272.2	9211.2	9071.4	9202.2	9142	9093.4	9090.2	9042.2	9101.6	9040.4	9040.4
527.543	40828.7	1033.86	10894.1	9899.8	9687.8	9548.4	9426.2	9414.8	9413.8	9383.4	9231	9193.8	9256.4	9195	9139.6	9108.2	9077.8	9072.6	9072.6
527.797	41023.2	1041.62	10948.5	9997.36	9788.36	9668.76	9502.56	9485.76	9442.96	9401.16	9334.36	9269.16	9325.76	9222.56	9241.16	9164.36	9166.96	9120.96	9120.96
528.051	41046	1040.38	10997.8	9990.2	9802.4	9649	9625.6	9536.6	9417	9378.4	9399	9324.8	9326.8	9253.4	9282.8	9189.4	9167.2	9124.4	9124.4
528.305	41206.4	1043.88	11079.2	10040.2	9819.84	9721.24	9633.04	9582.04	9559.84	9497.24	9467.64	9382.64	9322.44	9371.24	9345.44	9300.24	9263.64	9253.84	9253.84
528.558	40659.7	1035.78	10975.4	9947.29	9738.69	9595.69	9564.49	9421.09	9479.49	9373.69	9388.89	9363.09	9257.29	9213.89	9271.49	9150.89	9135.49	9170.89	9170.89
528.812	41453.8	1032.74	11207.1	10224.4	9980.84	9826.24	9686.64	9654.04	9633.04	9629.24	9621.44	9588.84	9515.84	9452.64	9369.04	9483.44	9347.84	9421.84	9421.84
529.065	41689.8	1042.94	11321.4	10347.8	10004	9965.04	9809.84	9761.44	9724.84	9707.04	9635.44	9681.04	9545.44	9622.64	9513.64	9498.04	9483.04	9503.24	9503.24
529.319	41585.5	1034.16	11315	10284	10022	9940.62	9856.62	9746.62	9737.82	9714.02	9677.42	9639.62	9565.62	9569.02	9560.82	9489.42	9516.22	9439.22	9439.22
529.572	41826.3	1038.22	11437.6	10371.5	10165.9	10068.9	9956.88	9867.48	9798.68	9813.68	9796.08	9721.28	9705.88	9682.08	9649.68	9610.68	9576.68	9655.28	9655.28
529.826	41765.8	1042.26	11468.3	10438.2	10261.8	10007.6	10019.2	9888.81	9874.01	9755.81	9799.21	9798.61	9743.81	9725.21	9670.61	9606.21	9596.21	9566.41	9566.41
530.079	42033.5	1042.42	11585.4	10496.8	10373.8	10143.4	10099.4	10021.8	9989.42	9965.22	9889.42	9794.82	9832.02	9792.02	9705.22	9717.22	9717.22	9706.42	9706.42
530.333	41874.1	1047.28	11560.8	10514	10301	10175.2	10083.8	10059.6	9934.22	9865.82	9876.22	9846.02	9848.32	9794.82	9710.62	9727.02	9726.82	9626.02	9626.02
530.586	41994.8	1045.74	11605.8	10554.4	10272	10143	10131.8	10029	10008.2	9970.84	9921.24	9878.24	9899.24	9789.44	9889.64	9771.84	9773.24	9722.64	9722.64
530.839	42141.6	1034.8	11725.5	10666.5	10404.3	10274.7	10237.7	10172.9	10072.5	10132.5	10039.3	9970.87	9948.87	9882.27	9876.07	9849.67	9878.47	9819.47	9819.47
531.092	42277.1	1043.66	11815.4	10750.4	10433.2	10434.2	10274.6	10213.6	10103.2	10109	10026	10088.4	9995.78	9991.18	9991.98	9908.38	9942.98	9936.18	9936.18
531.345	41647.9	1033.68	11713.7	10646.2	10365.6	10264.2	10276.8	10094.8	10038.2	10074.6	10006.4	9945.02	9947.22	9920.22	9892.02	9869.42	9851.22	9750.02	9750.02
531.598	42383	1055.76	11922	10864.8	10575.4	10481	10377.8	10409.4	10307	10264.2	10199	10163.8	10148	10133.4	10100.6	10128.4	10064.2	10008	10008
531.851	42361.1	1042.88	12011.6	10967.7	10678.7	10548.1	10395.5	10357.5	10416.5	10328.3	10258.5	10179.9	10137.1	10179.5	10187.5	10187.1	10165.7	10062.9	10062.9
532.104	42418.8	1043.28	12139.6	11006	10842.8	10630.2	10567.8	10437	10418.6	10362.2	10300.2	10283.6	10236.4	10238.8	10200.6	10207.6	10153.6	10138	10138
532.357	42388.6	1031.92	12128.1	11080.4	10828.6	10676.6	10489.8	10423.2	10461.2	10374.4	10340.4	10330.6	10316.6	10209.4	10338.8	10086.6	10191	10212.8	10212.8
532.61	42521.7	1042.16	12254.4	11120	10894.2	10742	10646.4	10571.8	10576.6	10478.2	10531	10397.7	10357	10364	10279	10306.2	10242	10246.4	10246.4
532.863	42514.8	1033.2	12309	11181.3	10974.9	10790.9	10631.9	10632.7	10582.7	10541.5	10514.5	10466.9	10380.9	10433.5	10397.5	10307.7	10331.1	10279.5	10279.5
533.115	42680.2	1041.2	12402.3	11332.4	11066.6	10907	10808.8	10774.8	10683.2	10596.4	10501.8	10583.2	10500.8	10491.6	10530.2	10411	10352	10307.6	10307.6
533.368	42750.2	1033.42	12496.4	11402.8	11083.6	10910.4	10833.4	10730.8	10756.6	10652.6	10546.6	10611.4	10533	10493.4	10513.2	10472	10508.8	10460.4	10460.4
533.621	42800.9	1039.74	12617.4	11415	11151	11023.8	10920.2	10879.2	10781.8	10783.6	10685.4	10734.8	10660	10576.4	10557	10492.2	10553.6	10460	10460
533.873	42888.8	1036.34	12676.8	11500.4	11260	10986.6	10948.8	10925.8	10866.2	10836	10694.6	10720.6	10778	10617	10621.2	10578.8	10588	10637.8	10637.8
534.126	42862.9	1045.3	12694	11624.1	11320.7	11121.5	11023.9	10942.5	10890.5	10880.7	10718.9	10765.1	10714.5	10668.9	10632.7	10612.3	10582.3	10596.9	10596.9
534.378	43062.9	1034.38	12784	11609.1	11324.3	11213.3	11072.9	10863.9	10930.3	10954.5	10854.3	10824.1	10778.9	10727.7	10757.5	10617.9	10662.9	10680.9	10680.9
534.631	43087.4	1038.72	12839.6	11678.8	11378	11313	11184.2	11110.4	11090	10944.2	10908.6	10888.4	10888.8	10854.4	10820	10747.6	10768.8	10719	10719
534.883	43124.3	1043.08	12930.3	11804.5	11469.1	11304.9	11297.7	11120.5	11097.1	11029.1	11095.3	11004.7	10924.9	10915.3	10876.7	10889.3	10862.9	10824.7	10824.7
535.135	43267.9	1035.98	13057.7	11846.6	11602.4	11392.8	11268.2	11249.2	11159.8	11071.4	11130	11012.4	10960.2	10893.2	10878.6	10911.8	10831.4	10870.8	10870.8
535.388	43214.9	1035	13033.8	11833.2	11588.6	11411.4	11332.6	11215.4	11196.8	11160	11117	11073.6	11062.2	10905.6	10938.2	10904.8	10871.4	10906.8	10906.8
535.64	43320.5	1035.08	13055.8	11950.6	11548	11447.4	11296.8	11252.6	11205.8	11178.8	11154	11136.4	11095.6	11075	10970.4	10967.6	10916.4	10880.8	10880.8
535.892	43425.3	1030.58	13195	11989.8	11675.8	11519.3	11417.6	11303	11333	11166.6	11142.4	11177.4	11116	11138.8	11101.8	11111.8	10958	11009.4	11009.4
536.144	43721.3	1038.96	13320.7	12108.6	11857.4	11622.4	11512.4	11438	11444.6	11298.6	11320.4	11355	11290.2	11261.4	11187.2	11170.4	11107.6	11129.8	11129.8
536.396	43855.5	1032.98	13406.5	12176.5	11787.9	11650.5	11576.5	11500.3	11484.3	11452.5	11294.7	11374.9	11303.3	11286.1	11201.1	11182.1	11241.9	11170.9	11170.9
536.648	43923.8	1040.62	13472.2	12357.9	11921.9	11672.9	11668.3	11549.9	11536.8	11558.9	11449.1	11381.1	11388.3	11397.9	11325.5	11255.3	11242.5	11256.1	11256.1
536.9	43915.8	1038.58	13463.9	12341	12021.6	11793.2	11749	11643.4	11618.6	11550.8	11575.6	11420	11386.8	11364.2	11348.8	11253.4	11336.2	11334.2	11334.2
537.152	44201.7	1039.8	13629	12389.2	12081.5	11929.3	11754.5	11707.1	11730.1	11598.1	11618.7	11549.5	11460.3	11454.9	11523.5	11460.1	11377.9	11405.7	11405.7
537.404	44134.6	1046.1	13654.6	12430.6	12107.2	11956.6	11874.8	11749.4	11655.4	11608.2	11563.4	11565	11552.4	11473.2	11522.2	11542.2	11398.6	11444	11444
537.655	44281.6	1036.7	13723.9	12499.9	12241.9	12015.3	11830.1	11769.5	11758.3	11720.9	11676.5	11656.3	11583.5	11627.3	11508.5	11525.1	11510.1	11529.9	11529.9
537.907	44547.1	1033.56	13846.2	12587.8	12296.6	12140.8	12017.4	11870.8	11834.6	11843	11719.8	11739.2	11762.6	11683.8	11714.4	11697.8	11668.8	11584.2	11584.2
538.159	44627.5	1043.28	13925.1	12671.7	12404.7	12223.7	12085.7	12070.9	11886.3	11878.7	11852.5	11804.9	11768.3	11673.3	11734.3	11733.3	11695.3	11657.3	11657.3
538.411	44663.3	1032.98	14021.7	12726.6	12418.2	12258.8	12097.4	12029.4	12061.8	11980.6	11992.8	11867.6	11759	11841	11816.4	11769	11737.8	11705.4	11705.4
538.662	44760.4	1040.64	14037.9	12802.9	12602.3	12362.7	12255.1	12074.3	12111.7	11954.3	11959.5	11978.9	11893.7	11917.5	11941.7	11826.3	11803.9	11776.1	11776.1
538.914	45054.8	1045.86	14213.4	12949.9	12626.1	12410.5	12305.7	12161.5	12172.3	12131.3	12098.7	12003.9	12039.1	12030.1	11928.7	11936.9	11930.5	11826.3	11826.3
539.165	44868.8	1037.38	14197	12965.5	12665.7	12503.7	12288.1	12298.3	12217.1	12182.1	12069.3	11957.3	11979.9	12012.1	11947.1	11943.5	11918.5	11925.5	11925.5
539.416	45150.2	1044.92	14377.5	13080.6	12724.2	12542.8	12391.2	12372.4	12322.4	12205.2	12303.8	12174.2	12137.8	12100.4	12114.4	12070	12050.8	12067.2	12067.2
539.668	45386.8	1036.04	14441.7	13200.7	12695.1	12676.7	12461.5	12431.5	12488.1	12287.3	12335.5	12201.1	12205.5	12175.7	12162.7	12113.7	12126.1	12153.3	12153.3
539.919	45233.8	1039.38	14497.9	13187.1	12909.9	12681.3	12491.3	12412.7	12425.3	12288.5	12287.5	12262.9	12171.7	12085.7	12260.5	12168.3	12077.5	12102.1	12102.1
540.17	45387.8	1033.96	14577.1	13270.7	12940.1	12771.5	12660.7	12523.9	12456.1	12390.1	12390.5	12393.7	12320.7	12221.3	12288.5	12262.8	12210.9	12261.7	12261.7
540.422	45478.9	1033.08	14648.4	13236.8	13040.2	12823	12682	12629.2	12628	12517.4	12470	12516.6	12405	12417.6	12388	12321.6	12347.6	12302.8	12302.8
540.673	45390.8	1038.58	14663.5	13401.7	13035.9	12937.3	12866.3	12707.3	12655.1	12568.1	12556.9	12408.9	12492.3	12462.7	12458.5	12439.7	12342.1	12423.5	12423.5
540.924	45646.3	1040.6	14843.8	13509.8	13194.2	13048	12860.6	12810.6	12791.4	12730.8	12691.4	12655.2	12572.6	12585	12523.2	12551.4	12598.6	12483.6	12483.6
541.175	45830.7	1034.18	14936.3	13564.5	13376.5	13116.7	12994.3	12875.1	12807.5	12786.1	12728.3	12755.9	12581.9	12637.7	12663.3	12597.9	12519.7	12556.5	12556.5
541.426	45898.4	1040.02	14962.5	13670.5	13471.5	13210.3	13023.3	12931.1	12881.5	12861.3	12768.1	12799.3	12722.1	12751.7	12638.9	12525.5	12744.1	12524.9	12524.9
541.677	46067.6	1039.62	15170.6	13806.3	13449.5	13283.5	13120.1	13011.5	13021.3	12947.3	12878.1	12899.1	12801.5	12802.7	12775.5	12695.7	12692.7	12624.5	12624.5
541.928	46112.1	1038.04	15267.6	13845.4	13488.2	13343.6	13202	13079.2	13019	12928.6	12942.4	12916.6	12784.8	12905.2	12830.8	12793.2	12824.2	12741	12741
542.179	45996.1	1046.06	15263.7	13868.9	13496.5	13299.9	13118.1	13140.1	13015.9	13034.3	12943.7	12956.1	12854.7	12814.7	12785.1	12866.3	12778.1	12782.5	12782.5
542.429	46287.9	1043.1	15343.2	14078.8	13630.8	13418.3	13342.4	13213.3	13069.3	13110.6	12996	13040.3	13076	12969.3	12961.8	12895.4	12863.8	12911.4	12911.4
542.68	46432.8	1045.02	15485	14110.6	13701.6	13491.2	13476	13392.2	13216.6	13163.2	13177.4	13164.6	13201	13032.2	13075.6	13002.8	12972.2	12914.2	12914.2
542.931	46710.3	1034.18	15574	14221.4	13763.4	13621.6	13460.2	13418.6	13375.2	13323.4	13265.2	13278.8	13167	13154	13076.2	13094.1	13032.4	13066.4	13066.4
543.181	46918.8	1050.9	15692.6	14299	13953.6	13767.6	13576.4	13599.4	13388.2	13401.6	13396.2	13312.6	13345.2	13266.2	13277.2	13190.4	13172.2	13204.6	13204.6
543.432	46821.7	1037.12	15710.1	14329.9	13957.5	13771.3	13630	13535.3	13523.3	13464.1	13443.7	13353.7	13294.3	13226.3	13164.9	13142.1	13135.7	13142.7	13142.7
543.682	47045.7	1032.44	15899.9	14506.3	14035.9	13881.9	13777.9	13673.5	13582.5	13562.7	13475.7	13497.7	13410.3	13478.1	13410.9	13314.7	13353.3	13301.1	13301.1
543.933	46995.2	1044.48	15941.2	14543.7	14214.3	13985.7	13791.9	13789.5	13596.9	13655.1	13624.5	13606.7	13510.9	13487.1	13418.3	13458.9	13366.1	13381.7	13381.7
544.183	47266.7	1033.36	16075.7	14763.8	14306	14048.2	13946.6	13970.2	13742.4	13842.2	13723.8	13688.8	13595.8	13611.2	13569.8	13523.8	13497.8	13440.6	13440.6
544.434	47597.5	1039.18	16206.4	14918.7	14406.9	14203.7	14121.9	13945.1	13925.1	13900.7	13836.1	13751.7	13827.3	13776.5	13661.3	13636.7	13582.7	13611.7	13611.7
544.684	47749.9	1036.68	16306.4	14864.8	14512	14309.8	14161	14029.4	13991	13948.2	13870.2	13842	13768.6	13821.6	13737.8	13662.8	13806.6	13712.8	13712.8
544.934	47742.2	1038.04	16328.6	14843.3	14492.5	14367.1	14216.7	14060.3	14059.3	13960.3	13999.5	13841.1	13767.5	13820.5	13715.9	13796.3	13759.3	13740.5	13740.5
545.184	47882.3	1038.18	16370.5	14926	14506	14387.8	14236.8	14163.4	14048.6	14057	14077.8	13843.6	13893.6	13887	13875.2	13746.4	13814.2	13773.8	13773.8
545.435	48218.3	1039.78	16574.1	15134.9	14707.7	14510.7	14393.3	14344.5	14233.7	14180.9	14083.9	14122.9	14108.1	14021.7	13968.7	13923.5	14003.9	13890.5	13890.5
545.685	48026.7	1036.2	16589.8	15132.6	14732.4	14495.6	14379	14287	14216	14202.2	14172.8	14152.6	13951.8	14000.6	13978.4	13939.6	13936	13898.8	13898.8
545.935	48159.4	1035.3	16709.1	15283.6	14814.8	14555.6	14361.6	14341.4	14327.8	14148	14198.2	14136	14070.4	14083.1	14035.2	13962.8	14017.2	13962.8	13962.8
546.185	48525.2	1041.14	16842.3	15315.6	14934.2	14788.4	14564.6	14491.4	14469.7	14372.6	14414.4	14350.6	14309.2	14244.6	14188.2	14184.4	14146.4	14104.4	14104.4
546.435	48429	1043.22	16865.8	15359.4	15125.4	14755.4	14649.8	14529.6	14529	14388.8	14338.2	14285.6	14257.2	14257.2	14301.6	14200.4	14150.8	14110.4	14110.4
546.684	48898.1	1032.5	17124.7	15594.1	15129.7	14843.5	14800.7	14635.3	14628.9	14524.3	14455.7	14463.5	14386.3	14422.3	14369.3	14397.5	14296.3	14294.3	14294.3
546.934	48624.6	1044.7	17012.7	15411.8	15129.2	14864.8	14759.6	14651.2	14655.6	14552.4	14500	14464.2	14431.4	14414.8	14318.6	14413.8	14323.2	14328.6	14328.6
547.184	48798.5	1032.76	17191.2	15678.5	15278.5	15049.1	14936.3	14799.9	14727.9	14640.5	14559.9	14625.7	14495.3	14462.3	14515.3	14459.3	14430.5	14423.3	14423.3
547.434	48973.1	1033.66	17333.9	15821	15275.6	15136	14966.6	14946.6	14839.8	14772	14671.4	14643.2	14616	14627.6	14508.6	14557	14623.2	14523.8	14523.8
547.683	49233.5	1038.52	17450.3	15872.9	15629.7	15297.9	15173.3	15000.7	14983.7	14868.3	14883.5	14844.3	14789.5	14717.1	14725.9	14705.3	14714.1	14657.9	14657.9
547.933	49356.4	1041	17631.8	16124.2	15663.2	15371.2	15230.8	15167.6	15041.6	15006.8	14932.4	14961.8	14804.4	14907.4	14856.8	14851.8	14804.6	14834.8	14834.8
548.183	49465.2	1040.62	17690.5	16141	15731	15458.2	15307.2	15314.8	15219	15091.2	15013.4	14958	14960.8	15011	14919	14957.6	14852.8	14732	14732
548.432	49185.4	1037.94	17654.8	16137.1	15698.3	15396.9	15448.7	15198.3	15193.5	15230.3	15024.1	15068.5	14970.1	14987.7	14962.9	14892.1	14880.9	14828.7	14828.7
548.682	49482.9	1028	17867.9	16322.6	15834.2	15624.4	15415.8	15392.2	15338.6	15248.6	15211.6	15116.4	15189	15104.4	14973.8	15093	15047.8	14952.6	14952.6
548.931	49576.2	1037.86	17950.9	16458.3	15979.1	15755.1	15556.7	15467.9	15410.9	15332.9	15236.7	15265.9	15243.1	15252.1	15135.9	15168.3	15147.9	15097.7	15097.7
549.18	49783.5	1035.92	18134.1	16448.1	16114.9	15804.1	15695.5	15607.7	15494.5	15464.9	15427.7	15368.5	15339.9	15247.9	15237.9	15276.5	15273.7	15268.5	15268.5
549.43	49766.3	1038.5	18191.9	16552.9	16117.7	15855.9	15728.5	15721.9	15631.5	15414.7	15395.7	15347.7	15386.3	15314.3	15302.5	15294.3	15244.3	15211.9	15211.9
549.679	49767.1	1041.52	18262.1	16653.3	16265.5	15959.3	15781.5	15695.5	15653.9	15536.9	15497.5	15490.3	15524.7	15424.1	15436.3	15448.5	15320.9	15320.3	15320.3
549.928	49776.4	1041.86	18348.9	16706.3	16284.1	16080.3	15902.3	15786.5	15765.9	15674.1	15634.1	15657.3	15571.9	15524.1	15496.9	15436.9	15461.1	15385.9	15385.9
550.177	50028.8	1042.98	18526.5	16839.3	16425.9	16146.1	16079.7	15950.3	15891.5	15786.3	15798.7	15668.3	15613.1	15595.1	15559.2	15555.9	15579.3	15586.3	15586.3
550.426	50100.8	1035.42	18573.7	16934.4	16446.2	16327.4	16127.4	16058.5	15960.2	15843.4	15778	15700.4	15734.8	15770.2	15695	15675.6	15726.2	15555	15555
550.675	50124.6	1048.14	18535.4	16927.6	16513.8	16281	16162.8	16126.6	15986.2	15915	15811.2	15851.4	15829	15711.4	15668	15707	15594	15643	15643
550.924	50281.5	1044.98	18667.8	17111.8	16736.4	16438.4	16284	16252.8	16171.6	16065.4	15992.4	15945	15965	15922	15822.8	15881.2	15750.8	15698.8	15698.8
551.173	50554.6	1043.88	18857.5	17192.4	16844.8	16502.8	16366.4	16373.4	16307	16180.2	16143	16081.4	16121.4	16005	15966.2	15923.2	15928.4	15894.8	15894.8
551.422	50346.9	1032.74	18847.7	17138.5	16677.1	16524.9	16308.3	16307.7	16188.9	16129.3	16036.5	15981.9	15970.7	15946.9	15894.5	15849.3	15911.7	15844.5	15844.5
551.671	50670.6	1037.26	18999.9	17414.8	16988	16678.2	16566	16365.8	16331.8	16219.2	16209	16215.8	16159.4	16085.2	16089.8	16142.4	16043	16000.2	16000.2
551.92	50526.8	1032.28	19020.4	17371.2	16992	16647.4	16556.6	16435.8	16379.8	16309	16279.6	16231.6	16196.6	16117.6	16137	16156.2	16135.6	16142.4	16142.4
552.169	50904.3	1044.12	19212.3	17621.4	17036	16768.8	16648.4	16595.4	16477.7	16426.8	16461.4	16300.6	16329.2	16198.8	16328.2	16284	16222.8	16228.4	16228.4
552.417	50799.2	1045.88	19247.9	17533.6	17139	16851.2	16737.8	16613.2	16542.2	16366.6	16423.6	16282.2	16363.4	16286.2	16284.6	16284.6	16296.1	16229.2	16229.2
552.666	51135	1042.9	19362.7	17703.5	17228.1	16976.1	16818	16766.9	16641.1	16564.7	16551.3	16463.5	16407.5	16488.1	16472.9	16454.9	16346.5	16342.7	16342.7
552.914	51442.5	1042.88	19566.9	17860.9	17383.9	17018.5	16942.5	16841.5	16819.9	16666.2	16675.5	16581	16504.3	16468	16534.7	16552.5	16475.4	16494.3	16494.3
553.163	51349.3	1037.38	19521.7	17909.2	17370	17115.2	17032.4	16848	16821	16709.2	16685.2	16692	16574	16591.4	16598.2	16592.4	16520.4	16434.8	16434.8
553.411	51370.7	1039.08	19578.4	17813.1	17390.1	17195.5	17023.6	16861.9	16937.9	16771.1	16823.7	16759.7	16666.9	16587.5	16600.3	16557.3	16576.3	16610.7	16610.7
553.66	51601	1038.5	19706.5	17876.5	17546.7	17320.5	17182.5	16970.1	16975.3	16889.1	16784.3	16695.7	16780.1	16719.9	16711.5	16589.9	16628.9	16590.1	16590.1
553.908	51882.1	1040.12	19762.1	18055.1	17675.9	17310.1	17248.3	17071.7	17080.3	16999.1	16940.4	16890.7	16831.7	16805.1	16859.5	16784.3	16764.3	16749.5	16749.5
554.156	52107.1	1039.82	19952.8	18214.5	17867.1	17556.1	17324.5	17323.7	17126.1	17146.3	16936.7	16923.3	16929.9	16956.3	16968.7	16883.7	16887.1	16864.1	16864.1
554.405	52066.8	1032.9	19991.9	18285.3	17861.1	17601.9	17463.5	17252.5	17240.5	17177.7	17103.1	17035.2	17093.1	17003.3	16931.1	16911.5	16872.3	16822.9	16822.9
554.653	52266.9	1032.4	20109.3	18404.3	17793.7	17669.3	17512.7	17469.3	17295.5	17299.3	17192.3	17155.7	17072.9	17079.2	17112.9	17073.5	17079.5	17073.6	17073.6
554.901	52384.5	1031	20220.8	18525.4	18124.6	17785.8	17532.4	17591.2	17407	17439.4	17320.2	17317.7	17211.8	17124.4	17174.8	17193.6	17101.8	17107.2	17107.2
555.149	52407.6	1041.12	20233.6	18550.2	18144.4	17861.1	17708.2	17613.6	17419.2	17443.8	17341.4	17320.5	17343.2	17153.2	17203.2	17102	17127.8	17153.4	17153.4
555.397	52738.8	1037.4	20446.9	18755.2	18198.5	18035.9	17791.9	17662.3	17614.3	17511.5	17454.9	17489.9	17437.3	17428.3	17361.3	17387.5	17225.1	17259.3	17259.3
555.645	52808.6	1049.2	20428.1	18606.4	18196.2	18050.8	17855	17616.4	17719	17501.6	17539.6	17478.8	17406.8	17457.2	17332.5	17422.8	17351.6	17304.4	17304.4
555.893	52829.8	1032.04	20488.7	18711.9	18401.9	17994.5	17826.3	17770.3	17664.9	17551.8	17517.5	17532.5	17493.9	17536.4	17421.7	17320.5	17388.5	17315.5	17315.5
556.141	53030.2	1036.1	20552.9	18883.7	18436.3	18078.7	18033.1	17898.3	17925.7	17752.5	17656.1	17571.1	17579.1	17618.9	17550.7	17521.1	17458.9	17490.6	17490.6
556.389	53422.7	1035.24	20770.3	19076.5	18625.6	18348.9	18263.7	17940.7	18056.1	18032.7	17921.9	17897.7	17768.9	17817.8	17769.3	17728.6	17750.3	17690.3	17690.3
556.637	53526.9	1052.14	20920.6	19239.1	18728.4	18475.4	18231.8	18160	18081.2	18096.2	18040.2	17998.2	17930.2	17899	17826.8	17875	17949	17719	17719
556.884	53645.4	1044.1	21046.2	19182.5	18853.6	18515.3	18355.9	18225.3	18204.1	18237.9	18034.9	17967.3	18055.9	17897.1	18014.8	17874.1	17911.5	17880.9	17880.9
557.132	53675.9	1036.18	21065.7	19304.5	18768.3	18649.7	18369.5	18266.9	18255.4	18207.3	18010.9	18007.3	17979.9	17929.9	18036.5	17926.3	17854.7	17839.7	17839.7
557.38	53881	1037.04	21138.5	19416.9	18935	18635.9	18474.9	18325.3	18345.5	18212.4	18137	18121.8	18092.3	18111.9	18094.5	17968.9	17909.3	17956.1	17956.1
557.627	54001.3	1033.9	21216.9	19461.2	18978.2	18725.2	18525.2	18438.6	18344	18267.2	18237.6	18213.4	18138.6	18184	18091.6	18041.2	18023.2	17986	17986
557.875	54198.5	1037.44	21266.2	19545.6	19070.4	18775.8	18659.8	18564.7	18428.8	18383.8	18209	18293.2	18214.6	18161.8	18226.8	18154.2	18211.4	18177.6	18177.6
558.122	54095.7	1039.06	21294.5	19451	19049.6	18789.2	18666.9	18585.4	18467.8	18425	18367.3	18270.4	18248	18184.2	18283	18181.6	18102.6	18239.3	18239.3
558.369	54377.5	1042.72	21537.2	19722.3	19269.6	19038	18956.6	18911.1	18697.3	18642.6	18630.4	18595.2	18513.2	18475.3	18458.6	18507.2	18354.2	18396.4	18396.4
558.617	54471.6	1033.08	21652.7	19919	19465.1	19257.9	18975.3	18949.9	18784.3	18753.3	18648.1	18681.3	18571.9	18695.2	18575.6	18623.9	18497.4	18368.3	18368.3
558.864	54373.8	1034	21652.1	19825.5	19385.6	19180.1	18965.7	18818.9	18825.9	18708.7	18681.1	18519.3	18590.1	18525.3	18599.4	18548.9	18463.9	18456.3	18456.3
559.111	54874.1	1039.34	21897.2	20057.3	19693.1	19302.9	19133.3	19015.1	19071.3	18974.1	18910.9	18829.1	18891.7	18796.1	18886.1	18832.9	18675.9	18755.1	18755.1
559.359	54609.2	1034.4	21793.9	20098.7	19542.5	19318.3	19209.1	19039.2	19023.3	18927.1	18835.7	18849.9	18798.3	18796.2	18703.1	18600.3	18680.5	18563.5	18563.5
559.606	55024	1042.94	21944.5	20260.9	19786.2	19431.1	19380.1	19292.1	19156.7	19100.5	19071.7	19002.7	18913.3	18863.9	18908.7	18929.3	18890.4	18837.5	18837.5
559.853	55038.9	1031.94	22081.7	20413.2	19934.7	19620.3	19469.2	19286.5	19205.7	19128.7	19124.3	19001.9	19027.1	18968.5	18978.7	18989.8	18895.1	18855.3	18855.3
560.1	55227.6	1037.28	22192.9	20402.4	19875	19677	19508	19393.3	19291.2	19071.8	19197.6	19213.6	19213	19089.7	19034.6	19015	19004.6	18991.2	18991.2
560.347	55110	1035.4	22152.2	20407.7	19928.8	19768.8	19587.4	19439.5	19347.8	19243.4	19248.6	19132	19152.8	19008.6	19046	19038	18972.4	19089.9	19089.9
560.594	55136.9	1047.28	22249	20460.8	19994	19790	19639.1	19458	19328.6	19308.1	19250.1	19182.9	19176.4	19195.4	19164.8	19063.4	19005.4	19019	19019
560.841	55478.3	1037.76	22442.5	20643.5	20272.7	19928.5	19817.6	19678.1	19603.7	19530.1	19504.7	19362.5	19352.9	19289.5	19285.5	19287.5	19334.5	19205.3	19205.3
561.087	55336.6	1031.82	22427.7	20705.7	20211.5	20061.9	19676.9	19600.7	19661.2	19513.6	19568.2	19328.3	19360.3	19408.7	19242.7	19334.1	19333.2	19239.1	19239.1
561.334	55515.5	1045.78	22498.5	20868.5	20325.8	20150.8	19950.1	19795.1	19696.5	19581.9	19552.5	19455.9	19463.3	19517.7	19396.5	19392.7	19325.1	19333.1	19333.1
561.581	55529	1038.46	22529.5	20893.1	20428.3	20228.3	19949.8	19902.5	19682.5	19639.1	19697.3	19477.1	19642.7	19612.1	19507.7	19487.3	19429.3	19410.1	19410.1
561.828	55842.5	1043.94	22734.7	21051.9	20548	20249.4	20143.6	20040.9	19864.1	19816.7	19782.3	19791	19663.6	19771.9	19645.3	19608.7	19602.7	19600.1	19600.1
562.074	55594.1	1035.2	22731.2	21083.5	20575	20232.4	20071.8	19943.3	19859.2	19901.2	19828.2	19802.1	19715.2	19708.6	19622.6	19596.9	19648	19649.4	19649.4
562.321	56102.1	1044.85	23021.9	21259.7	20746.5	20436.3	20347	20287.9	20072.7	20113.9	20046.1	19952.8	19994.3	19924.3	19760.9	19801.5	19922.7	19763.7	19763.7
562.567	55966.7	1034.3	22991.2	21141.6	20775.4	20470.2	20289	20153.4	20134	20047.4	19927.3	20022.4	19996	19826	19916.6	19786.7	19815.5	19818	19818
562.814	56271.8	1033.84	23222.9	21407.5	21017.2	20708.6	20626.2	20446.4	20304.2	20295.2	20194.9	20219.2	20166.8	20125.8	20069.4	20069.4	19981.4	19949.2	19949.2
563.06	56163.6	1039.22	23181.6	21398.8	20932.8	20719.4	20523.6	20453.4	20386.3	20288	20255.8	20214.8	20167.4	20149.2	20100	20047.5	19983.6	20014.6	20014.6
563.306	55984.5	1043.48	23186.4	21523.6	21031.8	20733	20467.2	20423.2	20362.8	20226.8	20164.3	20321.3	20251.4	20222.4	20030.8	20071.6	20087.9	20092.2	20092.2
563.553	56058.1	1038.62	23247.7	21581.2	21004.7	20690.6	20517.3	20434.6	20416.6	20251	20167.8	20185.8	20052.4	20132.4	20134.8	20098.4	20058.4	20027.2	20027.2
563.799	56205.2	1040.72	23345.1	21717.7	21076.7	20786.3	20663.1	20638.7	20557.7	20389.1	20390.7	20285.9	20295.5	20333.7	20206.3	20392.5	20163.3	20114.7	20114.7
564.045	56253.5	1043.7	23476.5	21682.7	21246.1	21009.8	20743.1	20652.1	20539.2	20504.5	20505.1	20406.7	20369.9	20332.1	20341.8	20248.1	20137.4	20260.8	20260.8
564.291	56549.3	1050.98	23560.8	21849.8	21401.7	21022.5	20946.1	20777.9	20757.9	20694.9	20670.8	20524.1	20459.1	20466.5	20489.3	20519.7	20394.9	20429.5	20429.5
564.537	56417.4	1038.96	23559.3	21883.9	21456.4	21030.7	20982.1	20804.1	20715.7	20710.5	20648.9	20642.3	20507.3	20577.7	20460.7	20431.2	20496.5	20538.3	20538.3
564.783	56436.5	1040.6	23569.2	21829	21456.6	21176.6	20944.6	20935.7	20930.6	20655.8	20766.6	20694.4	20705	20553.6	20624.6	20574.2	20541.2	20529.4	20529.4
565.029	56610.3	1032.69	23789.8	22200.1	21641.1	21274.4	21066.3	21043.6	20964.2	20950.7	20764.8	20728.9	20796.6	20750	20758.9	20688.5	20752.1	20652.3	20652.3
565.275	56568.9	1031.6	23795	22074.1	21604.7	21405.7	21234.8	21044.2	21025	20968.8	20904.6	20862.4	20848.4	20774.7	20759.6	20784	20667	20646.6	20646.6
565.521	56565	1043.24	23862	22133.7	21730.5	21454	21140.1	21096.4	21057.3	20973.7	20986.3	20983.9	20760.7	20734.2	20809.3	20781.6	20699.9	20662.9	20662.9
565.767	56627.4	1032.8	23894	22158.6	21684	21550.8	21333.4	21273.6	21142.6	21065	20944.6	20918.4	20903.5	20892.8	20898.2	20798.7	20692.5	20833.6	20833.6
566.013	56609.7	1042.06	23884.6	22301.6	21579.2	21414.9	21311.2	21212.1	21100.8	20962.3	21006	20921.8	20936	20874.4	20706.7	20819.6	20752.2	20832.1	20832.1
566.258	56757.4	1033.86	23971.8	22179.7	21709	21496.6	21485.4	21134.9	21171.9	21105.4	21009	20963.3	20944.9	20911.1	20875.1	20857.1	21001.7	20923.8	20923.8
566.504	56844.5	1043.84	24063.8	22297.1	21923.7	21698.5	21417.9	21444.1	21272	21209.3	21166.3	21091.6	21039.9	20974.3	20989.6	21048.5	21001.2	21042.5	21042.5
566.75	56688.4	1039.7	23908.8	22331.6	21823.1	21618.5	21428.2	21411.2	21269.2	21257.6	21217.2	21127.6	21073.1	20995.6	21064	21044.8	20995.5	21030.4	21030.4
566.995	57115.8	1036.88	24276	22476.8	22122	21888.2	21649	21526.3	21479.4	21380	21412.7	21303.9	21454.4	21254	21275.2	21235.5	21243.8	21303.7	21303.7
567.241	56649.3	1038.28	24132.6	22451.8	21894.7	21787	21589.3	21439.1	21391.1	21292.6	21330.3	21233.5	21140.9	21180.5	21145.1	21054.5	21048.9	21098.9	21098.9
567.486	56945.4	1045.06	24247.6	22563.5	22113	21842	21670.6	21502.3	21408	21447	21371.8	21331.2	21290.8	21249.4	21298.8	21207.2	21280.2	21271.1	21271.1
567.732	56829.9	1041.78	24230.8	22509.2	22079.5	21734.7	21531.8	21615.8	21493.6	21425	21463.3	21398.9	21317.3	21273.9	21217.2	21220.1	21138.3	21211.7	21211.7
567.977	56753.5	1036.68	24090.7	22392	22139.6	21681	21590.1	21451.8	21419	21372.6	21357.2	21405.8	21361.4	21263.2	21206.3	21180.8	21139.7	21174.7	21174.7
568.222	56950.2	1045.24	24216	22697.3	22258.2	21922.2	21803	21802.9	21555.2	21560.6	21559.7	21520.4	21508.2	21493.6	21370.4	21438	21449	21285.3	21285.3
568.467	57048.3	1035.23	24437.3	22777.4	22369.9	21946.5	21775.6	21682	21646.4	21738.2	21660.4	21608	21513.2	21471.4	21424	21322.4	21347.3	21381	21381
568.713	56923.2	1041.68	24478	22929.8	22328.7	22080.3	21846.4	21859.4	21721	21768.4	21568.4	21577.6	21529	21603.4	21547.8	21485.4	21405.3	21383.2	21383.2
568.958	56950.2	1039.85	24512.1	22943.1	22396.5	22156.1	22047.9	21877.9	21833.8	21588.1	21719.8	21755.6	21613	21515.1	21501.6	21655.5	21553.9	21520.3	21520.3
569.203	56940.2	1036.94	24585.3	22886.7	22387.9	22198.2	22046.2	21882	21843.3	21777.7	21600.4	21593.6	21597.3	21698.4	21580.2	21539.6	21477	21540	21540
569.448	56935.3	1034.93	24552.4	22839.4	22514.3	22122.9	21918.1	21967.6	21777.4	21752.3	21757.9	21531.9	21570.3	21525.1	21526.7	21596.8	21503.3	21518.6	21518.6
569.693	56969	1040.54	24626.6	22984.8	22440.8	22279.9	21941.3	21963.6	21832.4	21755.5	21750.3	21647.5	21521.6	21587.9	21641	21600.5	21567	21509.7	21509.7
569.938	56873.9	1046.52	24513.2	22971.6	22483.9	22183	22073.4	21957.7	21774.7	21818.4	21778.2	21654.3	21690.8	21719	21756.6	21627.2	21616.2	21573.8	21573.8
570.183	57150.4	1033.64	24650.4	23015.5	22562.4	22444.9	22370.2	22106.6	21995.3	21944	21956	21817.2	21809.8	21864.2	21777.1	21726.6	21840.2	21748.7	21748.7
570.427	56982	1037.58	24612.5	23013.5	22526.6	22246	22250.4	22209.2	21973.8	22021.5	21935.9	21964.3	21983.4	21929	21660.3	21836.4	21806.2	21646.4	21646.4
570.672	57054.2	1034.46	24631.5	23043.7	22619.8	22356.4	22174.2	22228.1	21996.6	22062.2	21953.6	21959.9	21830.9	21932.1	21817.1	21793.5	21737.1	21807.1	21807.1
570.917	57062.4	1040.02	24813.2	23258.6	22599.2	22362.6	22199.4	22212.4	21982.5	22124.2	22013.1	21949.8	21963.9	21781.3	21906	21861.1	21779.4	21731.7	21731.7
571.162	56847.1	1043.72	24804.2	23221.2	22800.4	22524.9	22239.5	22236.8	21978.3	22151.5	21987.6	21862.7	21987	21881.5	21958.6	21849.6	21871.9	21800.5	21800.5
571.406	57267.2	1039.8	24999	23426	23040	22586.8	22584.4	22466.4	22320.8	22325.5	22215.4	22264.3	22169	22149.6	22201.2	22059.9	22069.4	22078	22078
571.651	57181.3	1035.6	24868.4	23428.9	22941.9	22740.3	22660.2	22338.6	22309.8	22186.1	22257.1	22297.5	22260.7	22029.4	22058.2	22056.9	22148.5	22068.9	22068.9
571.895	56983.4	1039	24906	23370.2	22893.1	22645.2	22595.2	22401.4	22318	22331	22180.9	22104.4	22162.8	22070.6	22078.8	22066.9	22017.6	22128.3	22128.3
572.14	57088.9	1048.96	24947.5	23501.6	23037.2	22837.6	22635.7	22546.1	22478.4	22370.8	22366.4	22253.4	22350.7	22329.5	22153.3	22231.1	22261.5	22198.9	22198.9
572.384	57053.2	1048.02	24977.4	23463.8	23087.6	22801.4	22584.3	22572.1	22457.4	22440.2	22401.4	22379.9	22300.6	22366.7	22236.7	22184.8	22203.2	22228.4	22228.4
572.628	57034	1036.56	25073.7	23421.7	23138.8	22789	22711.5	22586.3	22583.5	22494.6	22388	22347.3	22274.7	22344.8	22318.8	22249.5	22261.5	22249.6	22249.6
572.873	57301.8	1036.12	25208.6	23627.4	23215.4	22990.8	22837.1	22783.2	22672.8	22599.3	22650	22483.2	22448.5	22440.3	22465.1	22424.4	22385.6	22323.2	22323.2
573.117	57228.4	1050.38	25133.8	23640.9	23141.4	22973.6	22802.2	22647	22578.9	22573.9	22519.8	22497	22401.4	22354.8	22442.3	22467.2	22267.8	22258.5	22258.5
573.361	57257.8	1032.72	25235.4	23735.5	23362.1	23062	22811.3	22815.8	22761.2	22630.1	22544.2	22497.7	22434.1	22460.7	22461.1	22469.5	22528.9	22447.6	22447.6
573.605	57163.5	1038.24	25255.7	23723.2	23227.9	23043.3	22857.9	22790.4	22767.5	22722.1	22661.5	22529.4	22522.8	22488.1	22468.2	22425	22372.6	22400.2	22400.2
573.849	56983	1041.7	25242.3	23645.5	23249.5	23035	22885.2	22691.1	22798.5	22722.3	22648.2	22516.9	22562	22541.8	22521.2	22487.5	22391	22391.8	22391.8
574.093	57077.7	1042.4	25302.4	23884.2	23334.8	23228.8	23034.4	22831.2	22843.5	22925.6	22646.6	22638.4	22618.8	22654.6	22551.6	22605.3	22555.1	22574.8	22574.8
574.337	57142.3	1048.5	25470.8	24006.2	23437.2	23211.2	23131.1	23104.6	22958.6	22776.9	22884.3	22781.8	22797.2	22675.8	22675	22677.3	22615.1	22656.7	22656.7
574.581	57205.2	1025.66	25444.7	24035.1	23636.7	23387.8	23140.1	23093.9	23005.4	22992.2	22871	22857.4	22773.4	22727.7	22862.4	22756.1	22721.9	22693.3	22693.3
574.825	57265.4	1045.22	25435.2	24073.6	23494.7	23359.2	23217.9	23041.8	23141.8	22963.6	22919.8	22883.4	22767.4	22956.2	22783.6	22766.9	22762	22757.1	22757.1
575.069	57026	1045.64	25408	23871.4	23537.1	23244	23188.3	23076.7	23004.3	22947.6	22854.6	22779.9	22771.4	22769.8	22746.4	22685.1	22752.3	22614.1	22614.1
575.313	57150.5	1046.23	25552.1	24064.2	23704.4	23349.7	23172.3	23129.9	23032.5	22915.4	23000.6	22899.8	22870	22950.9	22780.6	22835.5	22781.1	22726	22726
575.556	57267.2	1031.38	25576.9	24167.9	23674.6	23486.8	23331.5	23177.6	23111.6	23174.4	23074.4	22994.1	22943	22978.2	22908.5	22797.4	22842.8	22795.1	22795.1
575.8	57107.4	1039.96	25557.7	24150.2	23699.2	23418.1	23319.2	23253.2	23075.8	23065.3	23073.2	22922.5	22844.9	22885.7	22907.5	22848.6	22878.4	22843.2	22843.2
576.044	57296.3	1041.36	25704.5	24226.1	23768	23608.8	23312.5	23359.2	23230.7	23165	23128.2	23045.9	23126.8	23115.1	23053.2	23055.5	23013.8	22894.4	22894.4
576.287	57103	1046.89	25573.3	24225.6	23734	23523.4	23313.6	23234.2	23219.9	23178.2	23164.5	23136.4	22981.8	22992	22992	22943.8	22857.6	23100.8	23100.8
576.531	57112.5	1032.08	25651.5	24386.2	23937.5	23614.6	23315.7	23442	23301.4	23184.2	23161.3	23163.2	23103.9	22968.1	23094.9	22981	23019.3	23068.2	23068.2
576.774	57143.9	1042.54	25695.9	24377.9	23935.1	23671.2	23371.6	23378.7	23307.4	23267.3	23133	23232.5	23073.8	23105.3	23030.7	23110.3	23114.1	23010.4	23010.4
577.018	57160.1	1029.06	25733	24281.2	23912.9	23602.7	23436.5	23434.3	23243.5	23192.4	23198.4	23205.4	23113	23015.9	23100.7	23119.9	22910.6	22992.2	22992.2
577.261	57202.3	1037.14	25686.8	24335.7	23827.4	23609	23444.4	23387.7	23325.6	23164.5	23133.7	23166.1	23078.1	23188.9	23108.5	23012.3	23088.6	22976.1	22976.1
577.504	57418.9	1042.64	25835.6	24445.2	23942.5	23756.6	23530	23577	23403.3	23404.4	23314.9	23289.2	23305.5	23286.3	23254.8	23243.5	23188.6	23129.7	23129.7
577.747	57213.5	1042.78	25779.4	24356.7	23832.1	23754.9	23520.9	23395.1	23358.7	23250.1	23343.3	23256.5	23335	23253.7	23233.6	23173.3	23080.8	23084.1	23084.1
577.991	57224.8	1046.88	25763.9	24288.4	23955.8	23707	23534.8	23525.6	23413.6	23337.2	23289.2	23272.4	23351	23333.7	23356.8	23339.9	23249.8	23167.4	23167.4
578.234	57186.4	1043.24	25810.8	24466	24050.3	23756.3	23553.3	23649.1	23464	23377.7	23456.2	23311.2	23306.8	23295.4	23228.6	23327.5	23273.5	23159.1	23159.1
578.477	57204	1030.04	25829.4	24333.2	24038.1	23887.1	23599.2	23628.6	23404.7	23447.4	23434.9	23414.6	23362.7	23376	23325.4	23287.5	23230.1	23228.3	23228.3
578.72	57065.4	1039.66	25821.3	24394.1	23996.9	23752.3	23561.2	23493.5	23503.9	23454.6	23302.6	23288.9	23329.6	23342.4	23339.8	23210.8	23304.5	23302.7	23302.7
578.963	57143.8	1025.98	25855.9	24421.2	24021.9	23821.4	23715.9	23548.4	23580.9	23497.4	23402.7	23433.6	23354.9	23305.8	23249.5	23347.1	23347.4	23329	23329
579.206	57031.3	1040.84	25898.4	24485.3	24036.3	23739.5	23653.4	23648.5	23567.5	23543.9	23313.9	23503.2	23333.7	23358.7	23282.8	23372.9	23202.2	23197.9	23197.9
579.448	56937.6	1045.68	25877.4	24444.4	24066.8	23894.9	23689.4	23641.4	23619.8	23440.8	23366	23422.7	23380.1	23338	23322.8	23397.6	23271.6	23269.7	23269.7
579.691	57164.3	1046.82	26001.5	24748.1	24184.9	24091.4	23843.7	23935	23748.6	23681.1	23581.3	23580	23497.7	23550.8	23510.1	23560.8	23497.4	23385.9	23385.9
579.934	57055.7	1034.5	25920.2	24653.4	24216	23975.4	23850.9	23704.8	23677.8	23496	23620.8	23604.8	23551.2	23481.3	23472.1	23448.3	23473	23394.6	23394.6
580.177	57236.9	1034.48	26038.2	24605	24281.4	23962.4	23867.6	23828.3	23587.5	23720	23587.8	23652.7	23577.8	23482.2	23580	23491.5	23469.7	23390.9	23390.9
580.419	57075.1	1041.9	26021.1	24627.5	24272.9	24001.9	23879.4	23801	23854.9	23627.6	23628.7	23717.4	23493.4	23519.1	23569.3	23414.7	23560	23412.5	23412.5
580.662	57277.5	1042.04	26189.1	24727	24397	24122.2	24005.1	23936	23917.1	23796.8	23775	23723.3	23744	23654.3	23660.7	23632.8	23688	23567.4	23567.4
580.905	57216.7	1048.66	26167.4	24798.3	24364.6	24215.1	24061.4	23996.9	23829.7	23841.2	23845.8	23778.5	23719.4	23760.3	23683.1	23712.7	23659.4	23630.4	23630.4
581.147	57112.7	1044.14	26066	24753.4	24430.7	24151.6	24094.5	24004.5	23834.1	23745.4	23818.9	23738.5	23721.5	23689.2	23691.2	23629.9	23645.3	23717.1	23717.1
581.389	57057.3	1074.4	26192.3	24840.9	24583.9	24281.1	24143.4	24040.5	23970.6	23888.3	23929.6	23789.5	23915.2	23782.8	23790.5	23844	23840.4	23709.8	23709.8
581.632	56984.7	1042.16	26136.1	24968.9	24475.5	24308.3	24073.8	24050.3	23910.9	23999.4	23829.6	23878.6	23933.3	23738.9	23856.9	23760.6	23799.6	23767.3	23767.3
581.874	57140	1042.9	26276.5	25050.1	24488.4	24416.1	24325.5	24168.9	24043.5	24090.4	23933.5	24003.7	23935.3	24017.9	24012.6	23864.2	23824.9	23919.1	23919.1
582.116	57165.2	1029.08	26245.8	25020.9	24575.3	24407	24313.7	24113.8	24137.1	24093.4	24082	23953.6	23988.3	23850.6	23910	23867.2	23871.9	23859.6	23859.6
582.359	56920.6	1033.64	26173.6	25040	24539.2	24306.1	24242	23999.6	24087.4	24048.4	24013.9	23892.7	23973.9	23818.2	23908.6	23830.5	23767.4	23742.5	23742.5
582.601	57090.1	1036.76	26319.2	25101.3	24659.4	24417.2	24324.2	24330	24197.3	24156.5	24122.4	24104.7	24130.6	24049.7	24027.7	23953.1	23904.1	23871.4	23871.4
582.843	57016.5	1026.96	26319	25177.4	24775	24580.6	24432	24205.1	24126.2	24089.1	24148.9	24058.2	24068.2	23912.2	23924.6	24073.5	23972.8	24048.1	24048.1
583.085	56828.9	1039.84	26324.1	24883.4	24584.8	24464.9	24245.2	24125.4	24073.5	24093.4	24119.8	24022.4	23913.3	23889.2	23934.7	23937.2	23865.9	23807.1	23807.1
583.327	57040.5	1025.8	26263.7	25154.2	24759.2	24497.1	24446.3	24352.4	24329.1	24208.2	24115.8	24076.6	24000.6	24068.8	23926.9	24014	23991.6	24016.2	24016.2
583.569	57120.2	1036.64	26321.6	25153.5	24881.2	24579.2	24434.6	24285.6	24298.2	24208.8	24162.6	24172	24127.4	24094.9	24053.5	24040.5	23980.4	24034.7	24034.7
583.811	57109.9	1043.04	26412.1	25182.2	24784.1	24395.1	24421.1	24341.9	24276.4	24284.3	24156.2	24202.9	24089.6	24138.1	24159.9	24067.9	24037.2	24113.4	24113.4
584.053	56905.4	1036.48	26480.5	25202	24834.1	24622	24419.5	24319.2	24290.6	24264.9	24191.5	24076.6	24156.4	23981.3	24059.6	24119.3	23981.9	23944.6	23944.6
584.295	56971.6	1044.81	26527.9	25179.4	24881.6	24554.4	24568.1	24446	24347.2	24162.4	24314.8	24292.1	24136.8	24277.3	24036.6	24164.1	24121.2	24130.2	24130.2
584.536	57205.2	1042.98	26661.4	25368.6	24959.4	24701.4	24646.8	24607.2	24635.9	24434.7	24392.9	24378.1	24387.9	24301	24335.1	24281.8	24206.6	24446.1	24446.1
584.778	56830.9	1037.74	26448.8	25130.2	24976.6	24664.1	24461.4	24263.9	24424.4	24238.1	24247.9	24351.2	24307.2	24243.2	24177.3	24104.7	24016.1	24221.9	24221.9
585.02	57065.4	1039.54	26583.3	25380.8	25004.7	24880.5	24688.3	24592.8	24437.8	24470	24427.7	24324.1	24425.6	24280.9	24320.3	24342.8	24199	24359.6	24359.6
585.261	56985.2	1034.94	26541.9	25296.1	24972.6	24779.4	24576.4	24481.7	24483.7	24528.5	24396	24360.8	24352	24382.5	24327.6	24344.9	24280.7	24202	24202
585.503	56861.4	1046.1	26524.3	25394.9	24900	24717.1	24566.2	24621.4	24482.9	24427.7	24402.4	24440.2	24403.4	24410.2	24339.2	24374.3	24256.6	24121.4	24121.4
585.744	57070.8	1034.94	26654.2	25314.4	25035.6	24841.2	24682.2	24509.2	24565.7	24507.8	24448.8	24499.4	24452.3	24566.6	24379.1	24374	24358.6	24359.9	24359.9
585.986	57011	1036.9	26539.6	25326.5	25022.1	24834	24709.6	24691.4	24414	24553.6	24359.7	24319.1	24344.9	24355.5	24290.7	24339.5	24432.7	24341.5	24341.5
586.227	57048.4	1042.12	26580.8	25462.6	25050.4	24873	24892	24599	24601.1	24615.9	24472.7	24351.9	24435.8	24449.4	24530.8	24357	24406.3	24338.6	24338.6
586.468	56743.5	1043.02	26590.8	25381.6	25003.1	24794.5	24723.8	24613.7	24644.6	24606.5	24395	24465	24409.8	24488.1	24380	24379.5	24374.6	24349.8	24349.8
586.71	56955.5	1037.08	26680.4	25583.9	25236.5	25096.9	24863	24875.4	24726.3	24608.2	24709.7	24694.4	24557.2	24549.4	24555.1	24632.9	24479	24537.3	24537.3
586.951	57022.2	1041.64	26720.2	25648.9	25237.7	25033.9	24940.7	24858.8	24829.9	24739.6	24697.7	24858.3	24689.9	24699.8	24607.7	24665.7	24696.3	24564.4	24564.4
587.192	56816.3	1040.56	26712.1	25450.9	25173.7	24946.2	24784	24794.8	24697.8	24478.8	24556.8	24646.3	24647.8	24552.7	24494.8	24494.4	24536.2	24581.9	24581.9
587.433	57027.4	1039.28	26718.9	25616.7	25194.3	24987.6	24796.1	24938.8	24869.4	24624.1	24723.3	24703.6	24728.2	24667.7	24564.8	24452.6	24542.8	24508.5	24508.5
587.674	57079.8	1024.16	26692.5	25466.3	25225.7	25100	25083.8	24820	24922.2	24751.7	24777	24815.7	24729.6	24673.3	24667.8	24762	24538.6	24597	24597
587.915	57031.7	1033.8	26722.5	25567.7	25289.4	25025.9	25076.5	24923.6	24831.9	24855.8	24662.9	24689.5	24704	24730.5	24716.7	24537.5	24571.2	24617.7	24617.7
588.156	57011.8	1026.62	26722.1	25678.5	25310.7	25061.7	24934.1	24791.4	24807.3	24825	24811	24778.2	24611.3	24750.8	24601.9	24669.7	24644.8	24673.9	24673.9
588.397	57185.8	1038.67	26901.6	25615.8	25382.2	25153.9	25024.7	24918.8	24940	24857.4	24816.6	24976.8	24756.5	24646.5	24691.8	24660.3	24732.6	24688.9	24688.9
588.638	57027.4	1045.92	26831.5	25575	25368.6	25119.3	25108.1	24903.2	24898.3	24750.6	24744.1	24684.1	24697.9	24851.6	24693.2	24775.7	24710.4	24576.6	24576.6
588.879	57029.9	1041.8	26789.6	25791.2	25385.1	25048.8	24945.1	24912.8	24816.8	24782.9	24710	24783.7	24755.4	24808.1	24807.4	24761.2	24635.6	24617.6	24617.6
589.119	57031.3	1047.64	26809.7	25829.9	25318.8	25239.7	25028.3	24972.5	25076.5	24916.2	24943.8	24812.8	24813.7	24778.3	24874.9	24819.5	24802.9	24870.1	24870.1
589.36	56912.2	1043.8	26822.6	25793.9	25396	25163.7	25113.6	25157	24950.9	24915.6	24899.9	24821.5	24782.9	24781.9	24859.3	24867.5	24742	24729	24729
589.601	56808.3	1032.9	26857.2	25778.2	25503.2	25219.9	24994.4	25068.6	24971.3	25007	25011.3	24893.8	24836.7	24839.4	24842.6	24721.8	24829.2	24738.2	24738.2
589.841	57084.7	1043.52	26963.2	25954.1	25679.5	25408.2	25231.6	25289.4	25119.9	25169.8	25086.1	24911	25047.5	24918.8	24959.3	24820.4	24876.3	24971.9	24971.9
590.082	56922.8	1036.98	26927.3	25740.9	25368	25407.9	25198.7	25176.8	25054.7	25076.1	24902.2	24984.8	24910.1	25026.4	24853.2	24858.8	24892.6	24855.1	24855.1
590.322	56989.8	1043.78	26987.4	25832.6	25461	25382.5	25239.3	25138.9	25133.3	25106.2	25091.5	25145.7	25000	25104.3	25041.5	24969.6	24927.1	24951.2	24951.2
590.563	57080.2	1039.88	26977.6	25903.2	25614.1	25316.4	25354.3	25269.1	25077.7	25209.3	25114.7	25090	25062.9	25014.1	24956.1	24959.9	24933.7	24890.8	24890.8
590.803	57030.4	1025.38	27021.3	25858.2	25556.2	25318.1	25252.6	25140.1	25166	25172.2	25042.9	25063.4	25039.3	25010.6	24864.4	25037.2	24904.5	24935.2	24935.2
591.043	56767.3	1030.74	26871.6	25831.4	25436.7	25348.7	25083.8	25033.4	25027.7	24964.7	25073.7	24950.1	24983	24970.3	24922.8	24882.5	24824.8	24841.9	24841.9
591.284	57019.5	1029.48	27001.8	25968.1	25566.6	25551.3	25396.6	25199.7	25282	25188.5	25222.9	25030.6	25162.2	25115.1	25130.4	25064.7	25078.3	24967.1	24967.1
591.524	57055.3	1037.06	26998.7	26054.4	25608.1	25416.9	25449.1	25235.7	25323.3	25194	25070.8	25244.3	25134.6	25136.4	25141.4	25137.2	25119.8	25068.2	25068.2
591.764	56915.1	1036.68	27009.8	25803.2	25519.4	25356.1	25300	25263.6	25287.1	25225.8	25118.3	25016.5	24988.2	25086.1	24986.7	24975.6	25056	24985.4	24985.4
592.004	56946.6	1036.4	26909.4	25947.8	25621.8	25380.3	25359.4	25279.5	25086.5	25196.1	25116.6	25055.5	25032.8	25008	24961.6	25037.5	25000.5	24950	24950
592.244	57264.7	1039.94	27130.7	26053.5	25866.2	25601.2	25516.2	25372.1	25377	25374.2	25415.3	25489.3	25256.9	25328.1	25220.1	25316.7	25205.3	25216	25216
592.484	56941	1044.24	27040.3	26044.4	25662.1	25485.9	25439.7	25315	25378.2	25329	25138.1	25288.3	25178.8	25099	25175.2	25130.9	25104.6	25109.5	25109.5
592.724	56942	1039.62	27150.7	26154.6	25691.7	25576.1	25412.4	25373.5	25374.2	25231	25230	25264.9	25289.5	25270.3	25179.7	25050.5	25215.2	25230.3	25230.3
592.964	57085.1	1040.22	27223.2	26098.4	25870.6	25652.4	25480	25482.8	25461.7	25455.6	25380.3	25374.4	25349.8	25269.4	25351.7	25289.3	25265.9	25225.4	25225.4
593.204	56932.8	1034.94	27160.2	26235.6	25996.8	25631.5	25491.7	25567.6	25471	25369	25332.3	25407.5	25344.3	25376.9	25159.5	25307.3	25114.2	25213.4	25213.4
593.444	56986.9	1031.16	27179.5	26263.5	25937	25752.2	25591.7	25548.4	25326.2	25495	25353.1	25246.4	25338.6	25357.6	25243.4	25295.1	25217.4	25346.4	25346.4
593.683	56887.7	1048.62	27285.9	26201.9	26029.4	25757	25541.8	25660.5	25559.4	25482.1	25442.8	25435.5	25383	25363.4	25300.1	25360.4	25320.8	25329.9	25329.9
593.923	56771.7	1037.7	27232.1	26108.6	25830.2	25683.1	25606.6	25533.7	25481.3	25462.5	25334.4	25430.4	25330.5	25343.6	25363.4	25127	25249.4	25247	25247
594.163	56677.8	1040.24	27167.3	26093.2	25833	25711.3	25609.5	25550.3	25384.1	25461.5	25297.3	25424.7	25329	25218	25183	25177.7	25246.1	25183	25183
594.402	56820.8	1040.24	27209.9	26282.8	25939.6	25694.8	25640.5	25669.8	25535.9	25515.6	25453.8	25373	25443.9	25386.8	25479.9	25347.6	25297.1	25268.5	25268.5
594.642	57009.7	1038.38	27291.2	26324.5	25932.9	25815.8	25654.5	25730.6	25565.5	25549.7	25526.8	25529.9	25465	25369.9	25392.9	25414.9	25387.1	25401.9	25401.9
594.881	56569	1031.86	27103.6	26080.3	25903.6	25668.7	25543.2	25480.9	25501.2	25319.7	25362	25211.9	25364	25272.2	25263.7	25263.5	25282.2	25316	25316
595.121	56787	1033.06	27367.3	26301.6	26064.4	25859	25774.7	25596.1	25567.5	25549.4	25485.5	25517.5	25567.3	25633.2	25426.1	25392.8	25431.4	25365.5	25365.5
595.36	56359.3	1032.62	27234.9	26168.7	25835.1	25746.6	25597.2	25614.1	25511.7	25446.1	25449.5	25359	25422.5	25420.6	25338.3	25388.4	25199.1	25278.8	25278.8
595.599	56424.7	1030.92	27196.6	26280.4	25868.1	25956.9	25779.7	25721.3	25598.5	25488	25562.9	25484	25492.5	25530.1	25412.1	25443.8	25389.2	25472.2	25472.2
595.839	56402.6	1046.99	27295.3	26259.7	25968.6	25788	25685.8	25610.1	25669.6	25581.5	25434.1	25540.2	25453.2	25314.1	25437	25375.2	25453.7	25295.7	25295.7
596.078	56346.7	1040.88	27247.7	26263.6	25899.6	25799	25749.2	25664.1	25613.1	25666.9	25554.9	25429.8	25508.4	25394.2	25396.1	25430.1	25469.1	25348.4	25348.4
596.317	56296.2	1046.6	27249.2	26212.1	25939.8	25773.4	25745.5	25702.4	25589.1	25678.3	25555.5	25384.4	25531.8	25504.6	25378	25411.4	25444.4	25430.2	25430.2
596.556	56317	1040.94	27176.8	26233.8	25967.6	25830.3	25658.3	25624.5	25600.1	25469.2	25475.9	25546.4	25424	25434	25376.6	25449.2	25349.1	25483	25483
596.795	56085.8	1032.48	27094.5	26012.9	25839.3	25615.1	25660.1	25436.7	25493.4	25425	25468.3	25481.9	25316.1	25368.4	25390.7	25340.5	25429	25322.2	25322.2
597.034	56044.2	1041.54	27121.8	26094.1	25908.2	25793.1	25790	25689.2	25544.9	25512.9	25546.7	25501	25410.1	25606.2	25467.5	25475.4	25448	25427.7	25427.7
597.273	55959.2	1044.1	27093.4	26156	25958.6	25753	25761.6	25642.3	25624.9	25649.8	25551.2	25531.8	25491.8	25480.3	25493.6	25464.1	25471.5	25522	25522
597.512	56142	1045.62	27314.3	26327.7	26152.6	25994.9	25865.8	25845.8	25828	25720	25682.4	25719.2	25689.3	25575.4	25668.3	25593	25550.7	25614.6	25614.6
597.751	55765.6	1038.38	27202.6	26221.3	26025.3	25797	25785.5	25630.3	25631.7	25621.6	25550.2	25442.8	25584.6	25423.6	25583.9	25518.4	25528.5	25353.5	25353.5
597.99	55746.3	1039.96	27233.5	26347.7	26034.4	25803.6	25694.4	25747.2	25665.8	25621.4	25616	25580.3	25616.5	25510.7	25535.9	25517	25469	25447.6	25447.6
598.228	55672	1037.66	27167.9	26189.8	25841.8	25842.9	25673.3	25652.8	25606.1	25682.2	25500.3	25553.9	25532.5	25485.2	25498.8	25560.2	25410.8	25350	25350
598.467	55700.7	1035.28	27090.5	26282.3	25969.9	25863.7	25633.9	25597.4	25627.7	25605.7	25613.4	25547.5	25477.1	25541.3	25484.7	25435.2	25499.2	25551.8	25551.8
598.706	55670.7	1040.68	27126.4	26317.8	25987.3	25922.5	25688.3	25734.4	25676.7	25521.6	25501.8	25486.1	25524.7	25572.6	25559	25479	25505.4	25556.9	25556.9
598.944	55256	1033.84	27051	26135.1	26023	25662.3	25702.7	25627.5	25582.9	25532.9	25478.8	25450.9	25467.7	25464.9	25395.7	25400.3	25458.1	25311.6	25311.6
599.183	55606.8	1034.92	27286.3	26340.1	26069.5	26024.4	25710.4	25815.6	25745.5	25676	25805.9	25562.5	25616.7	25731.9	25543	25531.6	25620.7	25604.5	25604.5
599.421	55481.6	1039.12	27136.1	26343.2	26086.5	25932.9	25897.9	25834.5	25803.9	25772.9	25681.9	25774.3	25678.3	25800.9	25599.3	25620.1	25608.3	25528.8	25528.8
599.66	55382.9	1034.6	27187	26440.1	26047.8	26019.5	25821.7	25864.1	25674.5	25716.3	25747.8	25720.5	25572.1	25487.9	25612.1	25701.1	25578.7	25648.4	25648.4
599.898	54986.2	1040.34	27009.9	26175.5	25906.2	25743.5	25644.3	25463.1	25621.5	25489.8	25553.5	25406.1	25400.4	25551	25308.6	25430	25338.9	25488	25488
600.136	55379.8	1045.64	27288.6	26396.4	26127.4	25976.2	25856.3	25838.5	25740.2	25692.5	25677	25701.3	25538.4	25612.3	25561.5	25562.2	25594.9	25630.9	25630.9
600.375	55087.5	1039.34	27134.6	26250.1	25987.6	25880.4	25814.6	25727.2	25712.3	25547.1	25621.2	25685.7	25564.6	25575.1	25492.6	25484	25604	25400.2	25400.2
600.613	55049	1041.76	26974.8	26213.7	26003.2	25978	25746.4	25727.8	25626	25675.5	25593.8	25513.9	25570.3	25526.4	25447.9	25602.6	25483.1	25434.7	25434.7
600.851	55059.1	1041.3	27058.6	26269.1	26028.2	25821.7	25720.3	25621.1	25723.9	25725.8	25520.5	25584.2	25540.4	25439.9	25521.3	25436	25466.3	25385.1	25385.1
601.089	54978.2	1038.78	26940.7	26257.1	25942.1	25876.1	25646.4	25659.1	25568.9	25470.3	25483.4	25464	25452.7	25458.6	25310.1	25455.5	25321	25378.2	25378.2
601.327	54932	1033.78	26896.1	26061.7	25874.2	25735.7	25706.4	25558.4	25513.4	25506.5	25558.1	25432.9	25488.9	25436.6	25359.3	25326.4	25329.1	25360.2	25360.2
601.565	54755.9	1035.5	26915.7	26182.7	25817.1	25719.2	25575.7	25643.2	25611.3	25473.3	25501.2	25477.1	25452.2	25301.9	25435.5	25493.2	25390.3	25370.6	25370.6
601.803	54790.1	1034	26925.1	26141.6	25977.3	25653.6	25729.6	25633.4	25651.5	25451	25461.4	25475	25526	25522.6	25436	25318.2	25452	25350.6	25350.6
602.041	54730.8	1027.08	26941.8	26149.2	25941.4	25815.3	25728.1	25421.1	25454.9	25451.8	25495.4	25527.7	25461.4	25479.2	25569.9	25383.9	25356.5	25314.9	25314.9
602.279	54477.6	1039.16	26957	26025.7	25823.9	25576.4	25602.7	25445.1	25454	25440.1	25380.9	25407.2	25339.4	25336.4	25422.5	25421.5	25331.6	25279.4	25279.4
602.516	54285.6	1032.66	26859.7	25941.1	25505.7	25561.4	25495.9	25398	25324.1	25252.8	25262.1	25308.9	25313.7	25333.7	25065.3	25280.4	25207.1	25154.1	25154.1
602.754	54336.8	1033.64	26756.6	25926.2	25788.2	25739.2	25552.5	25478.1	25458.8	25423	25312.7	25367.2	25346.9	25379.3	25207.9	25133.7	25233.7	25192.4	25192.4
602.992	54557.1	1034.04	26835.8	26091.5	25837.3	25773.4	25683.5	25631.3	25545.2	25544	25551.3	25453.3	25366.5	25407.4	25336.9	25414.8	25424.7	25366.2	25366.2
603.229	54359.2	1039.12	26752.4	25979.2	25849.6	25683.4	25434.8	25500.5	25311.7	25463	25362.3	25393	25388.3	25489.4	25312.2	25325.7	25332.9	25342.3	25342.3
603.467	54337.9	1033.92	26753.4	26069.6	25775.8	25607	25457.5	25518	25437.9	25411.5	25319.8	25376.3	25394.5	25342.8	25340.1	25275	25276.6	25282.4	25282.4
603.704	54050.7	1034.14	26648.5	25920.1	25649.6	25499.5	25442.8	25407.4	25322.8	25284.4	25270.4	25256.7	25317.7	25437.6	25232.5	25278.2	25184.6	25154.9	25154.9
603.942	53791.1	1036.24	26564.4	25817.5	25655.8	25498.5	25335.7	25276.8	25222.5	25371.6	25284.6	25134	25100.6	25032.5	25193.4	25122.5	25174.2	25062.3	25062.3
604.179	53754.5	1030.74	26536.6	25851.5	25611	25395.5	25462.9	25287.4	25278.3	25191.1	25026.7	25282.1	25185.8	25142.6	25066.8	25145.2	25178	25040.8	25040.8
604.417	53718.8	1043.7	26554.7	25831.2	25393.6	25369	25478.7	25284.5	25224.6	25248.9	25187.4	25196.5	25189.6	25059.7	25056.6	25108.8	25089.6	25099.8	25099.8
604.654	53347.8	1025.76	26362.4	25857.1	25451.6	25391.7	25292.6	25252.3	25191.2	25057.9	25045.7	25046.6	25155.6	24945.8	24962.6	24983.3	24977.4	24871.9	24871.9
604.891	53249.3	1035.88	26383.7	25670.2	25392.9	25274.2	25181.7	25210.3	25146.5	25103.4	25110.8	25017.6	25082.3	24969.1	25038.4	25060.3	25002.5	25066.4	25066.4
605.128	53178	1035.74	26459	25585	25412.9	25322.4	25291.3	25104.5	25067.5	25065.6	25114.8	24988.4	25056.7	24886.5	24949.7	24885.6	24980.3	24923.5	24923.5
605.366	53074.3	1043.2	26341.7	25754.7	25367.2	25270.9	25291.5	25098.6	25063.7	25200.8	25137	24997.2	24826.3	25064.7	24972.8	24968.9	24988.8	24867.4	24867.4
605.603	52953.9	1029.56	26315.7	25554.3	25380.5	25009.5	25092.9	24938.7	25080.7	24906	24954.6	24898.7	24897.4	24942.3	24927	24862.5	24881.1	24741.4	24741.4
605.84	52890.2	1036.68	26316.7	25555.4	25181.5	25168.8	25131.5	24903.7	25038.5	25139.8	25005.9	24925.7	24957.1	24913.6	24980.1	24797.5	24859.7	24763.9	24763.9
606.077	52871.3	1038.12	26325.5	25552.8	25359.1	25225.2	25234.3	25035.4	25064	25039.7	24976.9	25000.6	24965	24970.2	24905.6	24881.2	24860.6	24770.8	24770.8
606.314	52726.3	1035.26	26258.4	25375.5	25241.3	25097	25057.7	25031.6	24992.4	25058.5	24870.7	24856.6	24840.2	24932	24916.6	24786.5	24830.1	24851.3	24851.3
606.55	52451.2	1040.5	26104.7	25361.3	25076.1	25027.7	24887.1	24852.1	24911	24704.3	24776.7	24735.8	24670	24614.5	24797.3	24705.5	24525.2	24673.3	24673.3
606.787	52539	1032.82	26065.1	25342	25095.4	24883.4	24848.3	24738.9	24846.1	24734.9	24704.7	24689.3	24832.3	24781.4	24657.2	24869	24590.6	24633.4	24633.4
607.024	52127.1	1033.56	25862.3	25196.5	24885.2	24843.9	24774	24659.1	24656.4	24644.4	24589.3	24575.1	24504.2	24493.9	24568.5	24413.1	24490.8	24526	24526
607.261	52442.3	1036.84	26064.1	25277.1	25159.2	24882.9	24908.3	24838.3	24711.8	24827.8	24736.8	24745.2	24746.2	24646.8	24769.4	24717.4	24657.8	24624.1	24624.1
607.497	51833.8	1039.68	25730.9	25072.8	24815.2	24631.3	24591.5	24548.3	24481.3	24498.6	24517.6	24534.8	24367.4	24427.8	24373.1	24398	24415.6	24257.5	24257.5
607.734	51895.5	1035.32	25804.8	25123.8	24963.9	24707.2	24711.1	24568.6	24564.1	24605.7	24538.6	24455.3	24583.3	24349.1	24473.1	24503.6	24438.1	24475.7	24475.7
607.971	51579.1	1043.48	25662.9	25042.9	24709.3	24620.1	24583.5	24476.9	24502.1	24497.9	24344.5	24365.4	24327.3	24468.8	24332.3	24332.8	24417.7	24334.3	24334.3
608.207	51556.7	1036.64	25725.9	25083.7	24766.2	24637.6	24564.7	24551.8	24533.8	24432.7	24412.4	24358.3	24512.6	24336	24386	24425.2	24387.5	24264.1	24264.1
608.443	51133.6	1045.02	25460.6	24779.7	24686.1	24606.7	24386.9	24327.4	24410.8	24347.7	24326.1	24238.9	24273.8	24268.3	24266.4	24175.3	24221.5	24095.1	24095.1
608.68	51036.4	1036.7	25424.5	24791	24503.3	24494.5	24472.6	24347.6	24331.9	24257.2	24269.8	24244.6	24174.1	24247.8	24287	24325.5	24233.1	24187.8	24187.8
608.916	50958.1	1036.58	25454.8	24705.4	24523.9	24352.2	24411.4	24355.7	24340.4	24244.2	24188.4	24247.4	24200.3	24172.6	24252.3	24242.4	24369.6	24212.1	24212.1
609.153	51157	1044.16	25498.6	24743.9	24694.7	24437.9	24392.2	24400.2	24312.8	24305.9	24319.7	24260.4	24209.1	24309.8	24233.6	24198	24201.8	24145.9	24145.9
609.389	50645.8	1044.74	25166.8	24685.2	24301.9	24253.2	24118.5	24137.7	23995.9	24153.6	24108.5	24042.7	23996	24004.1	23970.9	23947	24089.3	23842.2	23842.2
609.625	50453.8	1031.12	25062.1	24442.3	24343.8	24188.2	24055.6	24193.1	24081.3	24052.9	24032.7	23954.1	24095.4	23989.1	23881.1	24002.4	23917.1	24003.2	24003.2
609.861	50501.2	1041.96	25136.5	24566.9	24381.3	24258.1	24171.3	24222	24152.9	24068.1	24079.5	24122.3	24015.4	23975	23980.7	23994.7	23979.3	24002.1	24002.1
610.097	50176.3	1040.7	24898.1	24362.6	24038.5	23972.1	23936.7	23999.4	23913.5	23957.1	24051.2	23920.1	23838.4	23866.2	23883.5	23833.5	23782.1	23801.5	23801.5
610.333	50189.8	1037.76	24940.7	24269.7	24080.1	23993.7	24006.6	23779.6	23807.5	23918.1	23892.5	23780.9	23771.7	23733.5	23725.3	23740.2	23776.7	23742.4	23742.4
610.569	50055.2	1039.32	24950.6	24260.9	24050.8	23944.7	23839.5	23889.7	23716.4	23851.3	23709.2	23756.5	23778	23762.1	23691.5	23579.5	23766.1	23663.9	23663.9
610.805	49745	1043.28	24708.7	24081.8	23924.5	23681.6	23698.4	23577.1	23530.8	23613.8	23646.8	23687.1	23571.3	23513.9	23507.6	23650.8	23503.9	23578.9	23578.9
611.041	49607	1030.16	24723.5	23959.3	23887.1	23763.3	23660.7	23541.3	23585.9	23651.8	23600.9	23417.8	23544.7	23578.7	23545.6	23555.8	23427.5	23439.1	23439.1
611.277	49611.7	1048.34	24618.4	23998.9	23741	23801	23680.5	23526.2	23502.9	23570.5	23583.3	23508.2	23475.1	23460.1	23509.9	23581.5	23622.6	23524	23524
611.512	49250.6	1040.12	24385.7	23780.8	23623.6	23557.2	23481.6	23462.2	23467.8	23468.5	23325.5	23420.5	23390	23386.3	23268.6	23358.7	23326.7	23231.4	23231.4
611.748	49265.4	1039.6	24339.1	23784.1	23596.3	23538.9	23463.7	23408.8	23301.8	23315.3	23276.2	23351.6	23219.1	23188.8	23104.4	23213.7	23324.7	23135.4	23135.4
611.984	48887.5	1032.96	24187	23539.1	23315.6	23354.8	23200.5	23176.3	23210.5	23076.6	23198.4	23072.1	23032.8	23064.6	23085	22940.2	23064	23036.9	23036.9
612.219	48926.3	1042.5	24180.1	23581.2	23401.5	23221.3	23263.2	23216.6	23243.2	23297.6	23127.2	23035.5	23124.7	23134.7	23083.2	23135.3	23101.6	23062.2	23062.2
612.455	48398.4	1036	24046.8	23395.5	23212.8	23136.9	23168.4	23081	23088.2	22990	22966.8	22959.2	22856.8	22888.7	22917.5	22918.7	22933.9	22885.1	22885.1
612.69	48310.9	1035.9	24021.1	23473.4	23251.4	23144.6	23020.5	23003.2	22993.3	23019.8	22970.5	22931.3	22927.5	22900.4	22940.5	22866.4	22953.5	22892.1	22892.1
612.926	48344.6	1037.44	24090.9	23569.2	23363.6	23217.8	23078.4	23164.8	23005.4	23008.1	23063.3	23100.2	23052.3	23057.8	23082.6	22951	22991.2	22966.9	22966.9
613.161	47799	1034.42	23749.9	23216.2	22991.5	22989.3	22825.7	22858.9	22830.3	22768.1	22794.4	22718.7	22750.3	22711.7	22716.5	22689	22826.7	22694.3	22694.3
613.397	48001.5	1039.52	23752.1	23225.9	22989.3	23051.1	23000.1	22897.9	22817.5	22772.7	22766.9	22791.5	22758.3	22755.5	22793.1	22756.4	22801.2	22731.6	22731.6
613.632	47569.4	1043.86	23586.1	22959.4	22944.6	22758.3	22648.7	22573.3	22501.1	22620.8	22666.7	22480.3	22497.7	22502.4	22556.5	22614.5	22550.8	22435.4	22435.4
613.867	47444.2	1034.46	23587.9	22944	22770.1	22682.4	22590.5	22698.6	22569.8	22552.4	22476.5	22554.3	22516.8	22441.1	22417.6	22534.4	22496.6	22341.5	22341.5
614.102	47215.2	1040.24	23453.4	22877.7	22739.4	22518.6	22599.9	22498.4	22514.5	22398.1	22372.9	22431.4	22407.5	22389.4	22277.5	22317	22382	22237.5	22237.5
614.337	46914.6	1039.04	23229.4	22673.6	22500.3	22293.6	22341.5	22269.6	22266.7	22232	22150.8	22304.4	22183.8	22214.7	22176.3	22182.4	22208.5	22136.7	22136.7
614.572	46566.4	1039.62	23098.6	22586.3	22421	22277.3	22085.5	22168.3	22099.8	22182	22128.6	22063.1	22058.2	22121.8	22034.2	22096.6	21981.2	22051.4	22051.4
614.808	46578	1033.64	23117.1	22498.9	22328.3	22298.3	22152.1	22231.9	22153.7	22185.7	22176.9	22028.7	22180.5	22133.5	22062.7	21999.9	21991.9	22028.7	22028.7
615.042	46258.7	1028.9	23090.6	22487.5	22293.2	22193.7	22197.8	22145.4	22085	21988.4	22058	22042.4	21914.6	21946.8	21975.6	22041.6	21955	21945.2	21945.2
615.277	46079.4	1043.22	22956	22332.1	22236.9	22039.6	21919.6	21964.4	22091.2	21831.6	21913.2	21828.3	21988.7	21966.7	21967.4	21729.4	21820	21832.2	21832.2
615.512	46114.9	1040.2	22892.5	22396.5	22108.4	22142.6	21931.4	22045	22042.4	21975.9	21803.9	21936.3	21852.1	21966.1	21900.2	21865.1	21826.1	21906.9	21906.9
615.747	45529.6	1035	22613.4	21996.9	21794.2	21761.4	21680.7	21633.9	21659.3	21663	21624.2	21603.1	21470.8	21611.6	21635.6	21533.4	21613.6	21505.4	21505.4
615.982	45585	1036.82	22531.2	22064.1	21917.2	21761.4	21604.5	21641.5	21609.8	21727.2	21628.9	21522.3	21583.9	21615.5	21582.3	21663.3	21603.7	21627.6	21627.6
616.216	45404.7	1041.7	22531.9	22014.1	21749.8	21725.5	21684	21630.4	21541.6	21703.4	21514.2	21520.4	21536.8	21557.6	21513.6	21475.9	21530.7	21527.2	21527.2
616.451	45093.4	1034.54	22377.9	21871.6	21646	21553.4	21536.8	21516	21384.6	21467.2	21370.4	21397.7	21445.2	21506.9	21360.5	21423.9	21282.4	21406.4	21406.4
616.686	44743.4	1033.44	22231.1	21641.5	21509	21449.2	21426.4	21300.6	21267.4	21261.2	21339.6	21238.6	21236.5	21186.6	21215.5	21254.1	21220.4	21177.5	21177.5
616.92	44641.2	1038.68	22250.3	21546.9	21378.9	21333.7	21265.5	21229.3	21162.3	21176	21211.4	21111.2	21162.9	21095.4	21144.3	20974.8	21103.1	21178.1	21178.1
617.155	44460.3	1035.08	22103	21386	21353.4	21192	21244.4	21238.4	21135.8	21072.2	21104.6	20981.8	21059.6	20996.9	21052.6	20977.2	20994.4	21046.5	21046.5
617.389	44278	1035.54	21963.2	21286.5	21206.8	21167.6	21055.8	20903.3	21011.1	20954.8	20931.4	20934.5	20946.7	20875.3	20964.5	20880.4	20943.3	20882	20882
617.624	43965.2	1041.52	21758.2	21146.1	21088.1	21031.2	20929.6	20862.8	20897.9	20942.5	20806.5	20730	20741.7	20787	20784.6	20765.3	20702.2	20770.5	20770.5
617.858	43889.5	1030.22	21732.9	21158.1	21002.9	20896.9	20833.9	20772.5	20852.3	20814.1	20722.7	20674.1	20759.7	20752.7	20810.6	20747.3	20773.3	20677.3	20677.3
618.092	43579.1	1023.96	21508.4	21135.5	20925.7	20701.9	20764.7	20640.1	20731.9	20626.6	20622.7	20720.9	20568.3	20644.5	20548.2	20496.3	20555.5	20557.1	20557.1
618.326	43383.6	1039.72	21529.3	20992.8	20844	20710.6	20680.8	20616	20654.8	20590.6	20594	20630.8	20694.6	20557.9	20651	20589	20701.6	20562	20562
618.561	43225.4	1034.18	21405	20887.6	20764.2	20712.6	20676.6	20649.9	20572.2	20578.6	20517.6	20657.8	20452.4	20560.6	20525.8	20552.1	20462.4	20477.6	20477.6
618.795	42872.6	1031.7	21306.9	20869.4	20545.4	20467.2	20518.9	20438.6	20413	20585.8	20408.3	20377.2	20392	20344.7	20343.1	20369.7	20382.9	20270	20270
619.029	42716.4	1045.82	21228.8	20608.9	20499.7	20378.3	20379.9	20338.9	20399.5	20321.9	20270.7	20298.5	20339.1	20264.1	20294.7	20257.1	20375.9	20223.3	20223.3
619.263	42527.4	1042.22	21088	20633.4	20425.4	20313.4	20222.6	20236	20280.6	20206	20312.7	20271.2	20188.2	20292.4	20141	20224.4	20220.4	20289	20289
619.497	42313.9	1041.58	20930.5	20471.2	20337.8	20405.8	20273.2	20208.6	20255.4	20226.6	20175.6	20156.9	20019.9	20122.6	20162	20099.8	20190.4	20119.2	20119.2
619.731	42233.2	1039.26	20862.3	20414.5	20275.8	20190.4	20268.5	20135.6	20115.6	20125.2	20046.6	20070.4	20136.4	20140.2	20018.6	20098.2	20095.9	20079.4	20079.4
619.964	42071.9	1039.4	20875.8	20378.9	20242.8	20266.4	20100.3	20115.1	20160.9	20090.5	20093.8	19944.7	20125.8	20065.2	19978.7	20145.9	20059.5	20076.1	20076.1
620.198	41945.4	1035.94	20802.4	20330.9	20242.1	20158.9	20074.1	20090.1	20006.1	20010.9	19969.5	19915.5	20119.7	19980.9	20078.1	19955.5	19931.3	20024.3	20024.3
620.432	41581.6	1038.2	20665.9	20117.2	20022.2	19978.4	19981.6	19961.2	19798.2	19834.6	19859.6	19836.7	19775.6	19707.6	19892.2	19781	19800.2	19747.2	19747.2
620.666	41314.7	1039.18	20421.4	20011.4	19807.2	19881.4	19713.7	19682	19644.2	19709.7	19639.9	19807.8	19659.2	19660.7	19635.8	19667.8	19588.2	19602.4	19602.4
620.899	41196.8	1041.78	20518.3	19990.3	19873.9	19827.7	19675.1	19584.1	19729.3	19626.1	19629.9	19674.1	19698.9	19654.1	19657.9	19627.5	19679.7	19497.1	19497.1
621.133	41103.3	1032.86	20456.2	19885.6	19842.4	19829.7	19635.2	19633.2	19689.6	19689.2	19549	19614	19534	19556.1	19540.8	19502.2	19492	19537.4	19537.4
621.366	40933.7	1046.46	20326.6	19713.8	19658.3	19668.5	19627.9	19454.1	19547.1	19433.7	19477.9	19413.5	19460.5	19499.5	19504.1	19362.8	19434.3	19421.7	19421.7
621.6	40753.2	1039.34	20220.5	19715.2	19599.2	19465.4	19518.6	19338.8	19506.9	19434.8	19501.2	19423.2	19324.6	19455.6	19410.2	19334.2	19356	19348.6	19348.6
621.833	40573.2	1045.48	20105	19661.6	19601.4	19510	19438	19285.3	19313.8	19309.8	19422.8	19282	19277.1	19302.4	19391.8	19207.8	19334.2	19228.2	19228.2
622.067	40227.4	1041.04	19972.2	19595	19333.3	19395.7	19373.6	19200.8	19187.8	19193.4	19128.4	19175	19230.2	19244.8	19214.8	19175.2	19087	19077	19077
622.3	40143.8	1048.36	19881.6	19440.7	19344.1	19267.3	19182.9	19140.3	19231.8	19167.7	19070.3	19049.1	19133.7	19076.9	19121.7	19035.5	19088.7	19031.5	19031.5
622.533	40090.3	1038.32	19847.2	19360	19286	19224.6	19173.4	19074.2	19140.8	19153.8	19088.4	19007.4	19177.6	19011.2	19018.4	19030.6	19045.6	19072.8	19072.8
622.766	40056.6	1034.08	19831.8	19451.3	19198.4	19163	19195.2	19125.3	19046.8	19133	18991.2	19002.8	19082.6	18990	19013.8	19072.6	18981.6	19033.4	19033.4
623	39700.1	1038.06	19632.7	19169.7	19078.9	18980.3	18926.7	18895.1	18901.7	18865.7	18889.3	18843.3	18786.3	18871.7	18849.9	18748	18771.7	18776.7	18776.7
623.233	39479.6	1040.38	19585.1	19071.3	19055.9	18913.5	18864.7	18878.1	18828.3	18859.1	18836.9	18854.3	18836.9	18794.8	18762.7	18759.3	18853.9	18785.5	18785.5
623.466	39332.2	1036.14	19370	19004.1	18855.1	18850.8	18806.7	18849.8	18806.7	18723.5	18729	18720.3	18673.3	18737.1	18652.3	18651.7	18739.1	18754.7	18754.7
623.699	39246.6	1036.06	19375.6	18979.8	18747.3	18760.2	18753.8	18782.2	18697.8	18698.2	18663.2	18653.2	18641.2	18580.4	18595.8	18670	18665.7	18628.2	18628.2
623.932	39087.6	1037.92	19325.9	18796.4	18784.8	18724.2	18648.8	18666.4	18607	18603.2	18540.8	18610.2	18644.6	18651.2	18548	18624.4	18517.4	18518.6	18518.6
624.165	39018.3	1036.78	19250.7	18890.4	18757.2	18716.6	18591.8	18687.2	18619.4	18624.4	18601	18613.6	18493.6	18484.4	18550.8	18530.4	18520.2	18524.4	18524.4
624.397	38500.5	1035.94	19020.4	18670.9	18487	18473.3	18442.9	18417.9	18472.9	18338.3	18317.9	18412.1	18389.7	18312.9	18388.1	18335.9	18334.3	18399.7	18399.7
624.63	38696.5	1042	19097.6	18770.1	18579.9	18574.7	18586.4	18467.9	18493.9	18540.9	18456.7	18534.9	18377.3	18413.9	18419.1	18336.3	18270.3	18400.5	18400.5
624.863	38536.5	1041.92	19012.4	18623.8	18470.6	18472.4	18419	18458	18434	18369.4	18421	18301.4	18302.4	18347.8	18335	18285.8	18282.6	18295	18295
625.096	38222.6	1032.96	18918.1	18524.3	18381.1	18338.7	18303.2	18326.1	18299.3	18186.5	18219.8	18130.5	18238.1	18206.9	18109	18103.9	18226.3	18210.9	18210.9
625.328	38037.9	1037.08	18843.1	18450.1	18338	18297.2	18305	18209.6	18220.6	18175	18233.4	18208.5	18127.2	18101	18179.8	18214.7	18155.4	18214.6	18214.6
625.561	37685.6	1038.3	18650.8	18271.3	18148.7	18156.9	18151.5	18061.3	17982.1	18020.3	18025.5	17964.7	18037.5	18080.9	18044.9	17989.9	17946.3	18013.1	18013.1
625.793	37762.7	1031.02	18677.3	18322.1	18116.4	18014.7	18169.1	18097.7	18104.1	18045.3	18076.9	17976.6	17927.3	17974.7	18007.1	18054.9	17954.1	17937.8	17937.8
626.026	37477.1	1038.06	18526.5	18145.9	17867.6	17920.9	17918.9	17955.9	17934.7	17893.5	17789.2	17818.9	17858.5	17868.3	17847.3	17780.9	17753.8	17717.3	17717.3
626.258	37481.9	1036.24	18527.4	18162	17961.4	18033.4	17862.6	17873.8	17933.2	17832	17957.2	17938	17881.8	17849.5	17824	17823.4	17914.2	17892.4	17892.4
626.49	37486.8	1029.26	18520.4	18084.6	18034.2	17946.6	17931	17954	17884.3	17805.2	17833.8	17891.6	17772.6	17926.7	17769.4	17774.7	17774.8	17767.8	17767.8
626.723	36998.7	1035.54	18232.1	17986.4	17885	17744	17784.6	17707	17646.6	17725.2	17680.2	17671	17607.8	17560.2	17569.2	17564.2	17643.9	17656.8	17656.8
626.955	37044.1	1037.02	18323.8	18034.3	17738.2	17731.9	17714.7	17735	17801.9	17587.3	17707.9	17523.3	17594.3	17702.5	17631.3	17582.9	17580.9	17675.1	17675.1
627.187	36775.5	1039.8	18200.6	17878.3	17751.9	17626.7	17592.5	17710.1	17582.5	17603	17634.1	17439.4	17471.5	17544.9	17474.7	17528.5	17450.3	17513.7	17513.7
627.419	36622.3	1038.88	18153.7	17807	17701	17650.2	17538.6	17520.4	17551.4	17532.8	17454	17422.8	17520.4	17507.8	17417.8	17484.4	17467.8	17471	17471
627.651	36528	1036.66	18085.9	17800.9	17602.2	17493.1	17516.3	17396.9	17450.7	17347.7	17455.7	17499.1	17414.7	17433.5	17375.3	17312.1	17324.7	17379.7	17379.7
627.884	36238.8	1043.32	17907.8	17605	17482.6	17503.2	17398.2	17303.6	17342.2	17250.8	17283.8	17376	17287.4	17277.6	17233.4	17276.2	17271.2	17194.4	17194.4
628.115	36164	1037.8	17837.6	17472.9	17354.3	17288.7	17346.9	17328.3	17259.7	17254.5	17138.7	17241.3	17297.5	17261.7	17112.9	17213.1	17246.7	17124.3	17124.3
628.347	35979.4	1039.06	17776.5	17457.8	17326.2	17356.6	17256.8	17337.6	17282.4	17234	17208.4	17176.8	17205.2	17115.8	17127	17250.4	17087.4	17165.8	17165.8
628.579	35781.9	1043.22	17703.3	17367.4	17301.6	17285.4	17092	17114.6	17248.8	17137.8	17069.1	17057.1	17137.8	17041.6	17073.4	17081.6	17019.2	17035.8	17035.8
628.811	35582.4	1044.4	17685.6	17299.2	17214.8	17050	17175.8	17068.2	17171	17094.6	16968.6	16989	17017.8	16962.3	16982.6	17017	16856.2	17018.6	17018.6
629.043	35522.7	1045.16	17707.8	17377.1	17271.7	17080.7	17154.9	17090.9	17123.1	17030.5	17019.5	16924.1	16956.9	16983.1	17054.1	17002.5	16994.7	16956.7	16956.7
629.275	35448	1035.7	17567	17220.8	17108.4	17118	17051.4	17020.4	17062	16865.2	16961.6	16969.8	16980.4	16970	16912.2	17006	16907.8	16793.2	16793.2
629.506	35254	1044.95	17481.6	17163.1	16954.9	16826.3	16930.5	16893.3	16811	16737.9	16865.9	16818.9	16743.5	16800.7	16775.9	16809.1	16729.3	16781.9	16781.9
629.738	34995.1	1028.78	17370.9	16989.3	16921.9	16855.3	16689.9	16827.8	16741.3	16708.9	16762.7	16701.7	16707.1	16690.9	16711.5	16659.1	16756.9	16661.3	16661.3
629.969	35022.3	1036.22	17346.8	16987.4	16860.8	16839	16819.2	16853	16770.6	16825.4	16676.4	16780.2	16805	16799.4	16771.2	16758.6	16749.6	16717.8	16717.8
630.201	34601.3	1039.44	17201.7	16886.9	16705.7	16762.1	16695	16771.1	16602.1	16529.9	16609.3	16665.4	16575.7	16507.9	16681.7	16706.9	16638.7	16574.7	16574.7
630.432	34479.8	1040.28	17164.4	16801.5	16670.5	16644.1	16690.9	16658.9	16608.9	16667.9	16568.5	16554.5	16548.5	16586.5	16597.7	16627.5	16598.1	16578.1	16578.1
630.664	34493.7	1044.3	17145.2	16884	16743.6	16685	16662.6	16664.6	16572.2	16625.2	16546.8	16593	16583.6	16631.2	16484.8	16578.6	16480.4	16545.2	16545.2
630.895	34090	1035.12	17018.9	16668.9	16458.3	16518.9	16479.7	16449.1	16442.9	16385.5	16456.5	16320.7	16397.5	16412.1	16383.1	16320.7	16331.1	16317.3	16317.3
631.126	34203.7	1032.36	17070	16686.9	16723.7	16522.5	16547.3	16573.5	16504.9	16481.1	16515.7	16444.9	16460.1	16426.8	16428.5	16446.3	16493.3	16488.7	16488.7
631.358	34022	1038.82	16984	16651	16532.2	16426.8	16535.9	16427.6	16493.2	16439.6	16397	16389.4	16363.8	16330.4	16389.6	16341.8	16360.2	16316.6	16316.6
631.589	33897.6	1041	16968	16688.6	16548.8	16490	16401.4	16441	16336	16379.4	16286	16374.6	16327.2	16297	16319.2	16353.6	16360.4	16244.8	16244.8
631.82	33656	1031.19	16804.8	16385.8	16439	16354.8	16265.6	16256.2	16274.8	16173.2	16192.2	16210	16307.6	16185.2	16246	16153	16169	16180.2	16180.2
632.051	33576.7	1035.08	16738.8	16383.1	16337.2	16365.3	16194.1	16271.1	16244.7	16125.7	16141.1	16174.9	16095.9	16172.7	16192.3	16051.3	16127.1	16176.5	16176.5
632.282	33392.6	1035.44	16618.8	16268.3	16171.3	16224.5	16138.5	16152.9	16131.7	16019.5	16074.3	16046.5	16087.5	15970.9	16051.1	16063.1	16039.1	16068.1	16068.1
632.513	33144.5	1040.7	16542.1	16178.6	16109.4	16121.6	16114.4	16029.4	16039.9	16036.2	16062	16001	15919.6	16013.6	15946.4	16021	15942.2	15910.4	15910.4
632.744	33121.1	1039.58	16474.1	16170.2	16065.8	16096	16039	16045.4	15993.6	16063	16059	15910.2	15979.8	15979.2	16029.8	15909.4	15991.6	15968.8	15968.8
632.975	32917.1	1038.02	16465.1	16083.6	16121.4	16029.4	15953	16066.2	15968	15932	15890	15928.2	15920.2	15957.4	15894.8	15908	15871.8	15920.4	15920.4
633.206	32755.6	1035.7	16424.4	16091.5	16041.7	16083.5	15969.5	15904.3	15861.9	15992.7	15859.5	15918.1	15955.1	15818.1	15839.9	15856.3	15845.7	15893.1	15893.1
633.436	32663.9	1034.56	16376.2	16059.6	16031.2	15965.4	15926.4	15951.8	15904.4	15894.6	15925.4	15836.8	15875.3	15849.6	15835.8	15887.4	15846	15806	15806
633.667	32526.1	1038.52	16344.5	15967.7	16013.9	15864.9	15822.9	15887.5	15798.9	15811.9	15798.1	15800.3	15778.1	15657.1	15704.3	15791.7	15793.9	15778.1	15778.1
633.898	32210.2	1039.62	16164.5	15886.9	15801.1	15753.3	15715.9	15756.5	15792.6	15603.5	15686.1	15667.3	15591.1	15582	15572.3	15575.9	15627.9	15477.5	15477.5
634.128	32238	1032.48	16130.3	15758.6	15707.8	15738	15700.4	15713.4	15747.2	15601	15658.4	15670.2	15538	15623	15519.8	15569.4	15505.6	15554.4	15554.4
634.359	32023.8	1031.12	15999.3	15680.3	15569.1	15594.1	15537.5	15556.9	15483.1	15565.5	15550.7	15527.1	15353.3	15429.1	15355.1	15401.7	15477.7	15424.1	15424.1
634.589	32126.4	1033.66	16014	15728.7	15691.9	15658.9	15603.9	15484.1	15546.9	15575.5	15556.9	15525.7	15504.9	15476.3	15447.5	15483.5	15461.3	15418.1	15418.1
634.82	31841.2	1038.22	15918.8	15657	15679.1	15597	15469.8	15517.6	15495	15451	15438.8	15397.6	15376.4	15419.8	15534.8	15392.8	15407.8	15318.8	15318.8
635.05	31820.1	1029.54	15877.8	15648.8	15579.1	15444	15466.4	15411	15411.2	15506	15352.6	15394.8	15433.9	15383.6	15443.2	15274	15369.2	15436	15436
635.281	31443.9	1035.04	15674.8	15423.2	15377.6	15320.2	15335.1	15369.8	15244.6	15262.2	15187	15204	15204.2	15279.2	15256	15218.8	15155.2	15258.4	15258.4
635.511	31474.9	1038.98	15798.6	15506	15361.8	15403.6	15303.8	15327.2	15349.4	15204	15205	15255.6	15228.4	15302.4	15281	15235.4	15246.4	15258.8	15258.8
635.741	31313	1046.22	15715.7	15466.1	15407.1	15303.5	15315.1	15294.5	15264.1	15224.9	15175.7	15097.7	15165.3	15110.5	15187.1	15190.1	15167.7	15181.7	15181.7
635.971	31123.1	1033.2	15599.2	15356.6	15277.6	15135	15118	15145.2	15050	15067.4	15129.6	15079	15155	15104.2	15078.7	15066.8	15042.6	15100.5	15100.5
636.201	30925.9	1043.06	15558.1	15267.8	15171.4	14987.4	15106.8	15007.4	15029.2	15054.6	15056.9	15046.8	15048	15035.6	15002	14981.1	15064.4	14968.6	14968.6
636.432	30976	1035.49	15522.4	15280.6	15166.8	15027.4	15164.4	15034.6	15069.2	15105.8	15052.8	15003.2	15026.6	15003.6	15034.2	14989.2	14964	15018.5	15018.5
636.662	30710.8	1041.88	15377.6	15185.6	15015.8	14996.6	14998.2	15010.8	14952.6	14951	14961.4	14905.6	14766.8	14842.4	14923.4	14866.8	14908.8	14846.6	14846.6
636.891	30475	1042.24	15293.4	15060.8	14949.9	14984.1	14938.9	14837.3	14910.5	14811.5	14882.1	14826.1	14788.4	14809.9	14814.5	14686.7	14767.9	14819.3	14819.3
637.121	30550.2	1037.78	15365.6	15069	15036.4	14978.4	14976.4	14945.2	14956.2	14909.2	14849.8	14845.2	14922.4	14854	14863.9	14881.2	14719.6	14882.4	14882.4
637.351	30157.7	1032.34	15187.5	14986.3	14836.3	14840.5	14715.5	14712.5	14795.7	14772.7	14700.3	14711.5	14714.7	14735.1	14593.3	14707.3	14631.1	14661.9	14661.9
637.581	30040.9	1032.18	15127.7	14888.3	14804.1	14761.3	14724.3	14643.9	14697.3	14709.1	14712.5	14573.1	14615.9	14589.9	14632.9	14585.3	14669.7	14703.9	14703.9
637.811	30071.6	1036.38	15055.9	14841.3	14734.3	14786.5	14798.1	14724.7	14724.7	14715.7	14627.7	14680.1	14616.7	14566.3	14614.5	14625.5	14601.9	14594.7	14594.7
638.041	29652.7	1038.38	14838.7	14716.9	14573.1	14580.9	14435.9	14501.1	14444.7	14448.3	14438.9	14486.9	14370.3	14448.1	14412.1	14504.5	14309.3	14406.5	14406.5
638.27	29749.7	1039.12	14896	14691.7	14663.9	14579.5	14632.9	14546.9	14453.1	14522.3	14487.5	14467.3	14454.9	14475.1	14421.5	14475.3	14480.5	14427.3	14427.3
638.5	29512.5	1039.92	14858.4	14596.4	14495.6	14502.4	14483	14478.8	14532.6	14448.4	14266	14429.4	14342.6	14401	14353.8	14292.8	14342	14490.8	14490.8
638.729	29430.3	1036.5	14746.1	14584.9	14467.3	14571.5	14443.5	14306.3	14392.5	14372.3	14365.1	14370.3	14343.1	14403.3	14345.9	14239.7	14275.9	14263.7	14263.7
638.959	29278.7	1042.4	14701.9	14529.4	14422.4	14339.2	14396.2	14341.8	14287.6	14314.6	14295.8	14364.8	14304.4	14164.4	14258.6	14173.1	14274.8	14303.4	14303.4
639.188	29061.5	1046.48	14607.4	14386.4	14298.2	14315.8	14275	14267.2	14243.6	14222.2	14152.8	14193.6	14195.6	14061.2	14186.2	14169.4	14140.6	14130.2	14130.2
639.418	28983.5	1038.96	14552.8	14353.8	14251.6	14260.4	14192.2	14158.8	14148	14131.6	14070.4	14148.6	14206.8	14078.6	14178.2	14149.6	14098.2	14087.6	14087.6
639.647	28847	1036.45	14525.1	14248.6	14183.6	14146.8	14165.4	14135.4	14101.2	14135.8	14111.8	14084	14056.4	14043.6	14022	14045.2	14082.4	14061	14061
639.876	28597.3	1037	14462.9	14128.5	14058.1	14132.1	14085.7	14030.7	13974.3	14020.5	13974.5	14039.5	14062.5	14003.7	13977.5	14043.7	13901.5	13908.9	13908.9
640.105	28560.3	1039.34	14387.8	14119.2	14048.6	14082.6	14042.8	13954.6	13909.6	13938.6	13880.4	14057.8	13979.8	13966.4	13982	13997.2	13945.6	13994.8	13994.8
640.335	28452.7	1038.76	14347.2	14084.5	14028.5	14017.3	13905.9	13940.5	13836.1	14012.9	13909.1	13913.1	13973.3	13967.1	13855.3	13892.5	13886.5	13906.3	13906.3
640.564	28276	1039.66	14234.2	14004.9	13933.7	13935.9	13845.4	13889.5	13934.9	13882.9	13824.1	13820.5	13860.5	13858.7	13786.9	13800.9	13774.9	13760.5	13760.5
640.793	28238.6	1038.75	14193.2	14000.7	13867.8	13922.4	13811.4	13796.8	13831	13839.8	13800.2	13796	13775.2	13760.2	13766	13749.6	13728.4	13717.2	13717.2
641.022	27961.3	1040.28	14082.5	13798.8	13867.6	13844.2	13735.2	13751.6	13749	13711.6	13718	13731.8	13670	13681	13632.4	13660.6	13702.6	13704.2	13704.2
641.251	27943.2	1038.64	14079.8	13913.1	13806.3	13722.1	13767.5	13716.9	13654.7	13706.5	13723.5	13691.5	13748.3	13704.5	13661.7	13684.5	13767.3	13696.1	13696.1
641.48	27841.8	1031.4	13964.7	13818.9	13732.7	13728.9	13665.1	13665.5	13640.5	13642.3	13624.7	13588.7	13707.3	13645.7	13662.9	13569.3	13589.9	13669.3	13669.3
641.708	27578.8	1037.1	13899.9	13681.5	13673.3	13552.9	13504.3	13532.9	13570.7	13521.1	13447.9	13487.7	13507.5	13457.3	13484.9	13419.9	13454.3	13430.1	13430.1
641.937	27558.6	1033.86	13918.6	13631.1	13673.9	13524.9	13559.5	13546.5	13528.1	13464.7	13534.9	13512.9	13367.3	13475.5	13477.9	13503.7	13481.3	13467.1	13467.1
642.166	27259.4	1032.34	13755.3	13526.5	13504.3	13455.9	13382.3	13367.3	13407.5	13380.9	13351.5	13405.9	13412.5	13316.5	13349.7	13343.3	13284.5	13380.1	13380.1
642.395	27333.1	1027.96	13772.9	13533.9	13435.9	13437.5	13477.3	13430.9	13435.7	13321.1	13398.7	13364.7	13332.7	13380.3	13347.9	13353.5	13334.5	13278.5	13278.5
642.623	27021.3	1036.08	13632.5	13455.2	13316	13376.4	13311	13282.8	13286.2	13299.6	13222.4	13192.1	13252.4	13136.8	13192.2	13201.8	13156.8	13178.4	13178.4
642.852	26924.1	1039.96	13535.8	13311.9	13282.9	13176.3	13213.9	13130.5	13112.1	13186.1	13049.1	13137.5	13072.6	13109.3	13110.5	13171.1	13050.5	13063.5	13063.5
643.08	26961.8	1041.78	13516.4	13327.9	13286.5	13242.1	13264.5	13253.7	13149.9	13192.9	13143.1	13158.1	13163.7	13000.5	13081.3	13040.7	13076.3	13117.1	13117.1
643.309	26746.1	1045.14	13472	13209.8	13108.4	13063.8	13150	13104.2	13109.8	13011.6	12953.4	12978	13067.4	13020.2	13001	12983.4	13025.4	12936	12936
643.537	26576.3	1045.82	13326.5	13067.7	13055.9	13067.7	13078.5	12977.9	12969.7	13009.3	13044.1	12935.5	12930.9	12930.9	12917.1	12903.9	12959.3	12901.3	12901.3
643.766	26581.6	1030.76	13324.1	13097.5	12990.7	12957.9	13003.7	12949.9	12911.3	12948.3	12951.7	12867.1	12921.3	12901.5	12947.5	12872.3	12877.3	12914.1	12914.1
643.994	26197.5	1036.52	13224.8	12962.6	12933.4	12957.6	12872.2	12883.2	12822.6	12756.4	12837.9	12815.4	12739.6	12784.2	12903.8	12789.4	12864.2	12849	12849
644.222	26038.4	1038.88	13169.6	12963.4	12836.6	12867.6	12827.2	12799	12761.2	12767.8	12822.4	12819.6	12733.6	12801	12699	12762.2	12755.6	12753.4	12753.4
644.45	26121.3	1037.82	13156.4	12941.9	12927.9	12926.3	12889.5	12868.1	12828.5	12827.1	12790.5	12768.4	12840.9	12791.1	12795.9	12806.5	12772.9	12847.3	12847.3
644.679	25887.4	1039.52	13073.3	12865.1	12810.1	12749.9	12749.3	12734.3	12660.7	12683.1	12724.1	12662.7	12659.9	12662.3	12664.7	12683.3	12655.1	12669.5	12669.5
644.907	25657.7	1034.42	12954.9	12718	12707.4	12637.8	12640.4	12688.2	12609.8	12591.8	12526	12484.4	12485	12590.8	12619	12493.4	12535.4	12539.4	12539.4
645.135	25601.5	1039.2	12895.5	12746.9	12669.9	12634.3	12620.1	12627.1	12602.9	12578.3	12540.5	12616.7	12618.7	12576.1	12494.5	12518.1	12515.1	12558.9	12558.9
645.363	25419.8	1030.54	12850.8	12737.6	12617.6	12527.6	12522.4	12479.8	12514	12486.6	12481.4	12474.2	12435.6	12428.2	12390.4	12482.6	12434.6	12465.8	12465.8
645.591	25402.6	1044.6	12878.8	12601	12551.8	12433	12445.6	12412.8	12493	12400.8	12492.8	12435.6	12429.2	12535.6	12495.8	12457.6	12401.8	12396.2	12396.2
645.819	25222.5	1041.74	12747.3	12540.3	12457.9	12411.7	12398.9	12417.7	12384.9	12419.7	12400.3	12393.1	12351.9	12364.3	12404.1	12360.5	12308.5	12365.3	12365.3
646.046	25037.3	1042.18	12689.9	12489.9	12377.5	12342.7	12346.9	12368.1	12298.1	12364.5	12326.1	12309.3	12302.5	12314.5	12268.3	12284.1	12327.3	12273.5	12273.5
646.274	24925.6	1040.2	12613.7	12452.6	12356.8	12324.2	12229.8	12261.2	12272.6	12296.8	12250.6	12260.8	12252.6	12325.4	12189.2	12256	12175	12198.8	12198.8
646.502	24779.3	1035.1	12614.2	12353	12282.2	12257	12261.8	12207.2	12248.2	12225.6	12205	12195	12230.6	12187	12303.8	12254.8	12100.8	12160.4	12160.4
646.73	24613.2	1033.28	12458.7	12340.1	12222.5	12172.5	12237.7	12168.5	12158.5	12151.5	12147.1	12207.3	12168.1	12146.5	12109.5	12104.1	12051.3	12073.3	12073.3
646.957	24477.1	1039.12	12458	12232.5	12116.7	12124.5	12096.7	12184.9	12115.7	12081.3	12094.3	12009.3	12066.5	12015.3	12076.7	12068.9	12042.7	12005.3	12005.3
647.185	24484.9	1033.96	12491.6	12275.8	12138.6	12214.6	12142.2	12103.2	12134.2	12126.8	12128.6	12040.6	12111.6	12096.4	12054.2	12033.4	12027.8	12091.4	12091.4
647.412	24297.8	1028.64	12387.3	12158.6	12096	12099	12034	12014	11994.8	11994.2	11959.8	11938.4	12027.8	11975.4	11954.2	11965.2	11920.4	11920.6	11920.6
647.64	24188.7	1039.26	12272.5	12058.9	11966.9	12039.5	11929.3	11940.5	11904.7	11936.7	11905.7	11842.5	11935.1	11842.3	11860.3	11895.9	11860.7	11889.7	11889.7
647.867	23831	1043.62	12126.8	11843.8	11879.8	11832.8	11733.2	11767.8	11805.8	11821.2	11725.6	11672.2	11749.6	11731.4	11776.2	11687.4	11694.6	11674.2	11674.2
648.094	23986.6	1037.1	12159	11907.2	11921.2	11845.2	11882.4	11898.8	11865.2	11761.8	11733.4	11805.4	11891.6	11813.8	11849.2	11834	11843.6	11723	11723
648.322	23678.1	1043.16	12004.5	11850.7	11786.1	11777.3	11778.7	11741.1	11722.3	11708.5	11671.1	11750.3	11686.7	11723.7	11639.5	11681.1	11715.1	11639.3	11639.3
648.549	23714.8	1048.36	12059.7	11827.8	11812.6	11757.2	11719	11750.6	11643.6	11735.8	11688	11731.4	11688.2	11732	11610.6	11668.4	11694.8	11657	11657
648.776	23442.7	1032.58	11929.9	11721.4	11682.6	11647	11615.4	11621.8	11594.6	11695.4	11639.4	11594	11475.8	11510.8	11493.8	11533.2	11526.6	11533.6	11533.6
649.003	23591	1038.32	11984.6	11711.1	11663.1	11716.9	11621.7	11646.5	11747.5	11640.5	11606.5	11543.7	11557.7	11588.5	11652.5	11634.5	11661.9	11500.5	11500.5
649.23	23427.9	1030.96	11824.6	11723.4	11641.8	11518.4	11628	11564.6	11480.8	11578.2	11599.8	11555	11464.4	11483.8	11514.8	11574.8	11525.8	11532	11532
649.457	23246.2	1039.92	11740.3	11635.5	11485.7	11553.9	11529.1	11431.7	11483.9	11484.5	11481.7	11453.7	11458.7	11378.3	11506.9	11414.7	11467.7	11404.1	11404.1
649.684	23046.4	1043.5	11683.1	11548.1	11495.5	11449.9	11505.3	11408.7	11461.1	11455.9	11417.1	11412.9	11470.7	11424.3	11347.1	11406.5	11357.5	11348.3	11348.3
649.911	22966.7	1036.66	11705.4	11545.8	11516.8	11429.2	11461	11421.8	11376.8	11419.2	11300.2	11356.2	11385	11325	11311.2	11320.4	11363.6	11287.2	11287.2
650.138	22664.5	1032.82	11539.2	11360.8	11270	11249	11312.6	11338.8	11172.8	11274.6	11224	11194	11204	11231.4	11177.6	11216.4	11121.2	11175.8	11175.8
650.365	22765.8	1035.52	11593.7	11393.6	11304.6	11358.2	11302.2	11340.4	11284.2	11348.4	11213.8	11269.2	11338.6	11289.6	11211.2	11176.2	11241.8	11314.6	11314.6
650.592	22492.7	1046.78	11443.9	11308.8	11173.2	11245	11187	11163	11265.8	11198.2	11192.4	11113.4	11171	11146.8	11097.2	11083.8	11098.4	11169.6	11169.6
650.819	22590.7	1030.5	11511	11314.6	11167.2	11156.8	11275.6	11224.2	11150	11172.6	11217.6	11222.8	11231.4	11141.2	11223.4	11174.6	11159.2	11127.4	11127.4
651.045	22379.7	1037.92	11357.8	11207.8	11149.8	11086.2	11127.8	11089	11080.4	11112.8	11005.3	10963.4	11023.4	11089	11065.2	11044.4	10990.8	11041	11041
651.272	22168.5	1040.14	11224.2	11050.7	11049.9	10970.7	10974.3	11029.7	10994.7	10977.3	11013.9	10924.1	10951.7	10929.5	10900.7	10940.5	10920.3	10920.1	10920.1
651.498	22167.7	1037.7	11150.6	11013.1	11074.3	11044.1	11005.1	11047.7	10971.5	10899.7	10893.3	10958.1	10909.7	10971.5	10939.1	10933.7	10959.3	10923.3	10923.3
651.725	22053.5	1031.69	11155.7	10997.9	10977.9	10854.3	10914.5	10906.3	10902.3	10878.9	10960.9	10871.3	10839.1	10835.1	10824.7	10846.7	10885.1	10854.5	10854.5
651.951	21820.5	1046.12	11064.5	10900.5	10893.1	10880.5	10832.7	10721.9	10803.3	10818.5	10732.5	10755.5	10741.9	10752.9	10768.7	10744.5	10687.7	10729.9	10729.9
652.178	21771.2	1038.32	11036.6	10797	10783.6	10813.4	10791.2	10872.2	10746.8	10719.2	10743.4	10752.8	10818	10816.8	10788.8	10774.8	10736.4	10776.4	10776.4
652.404	21604.3	1041.86	10965.7	10869.9	10783.7	10729.3	10763.3	10737.1	10713.1	10719.3	10739.9	10698.9	10725.7	10766.3	10663.9	10672.3	10673.5	10686.9	10686.9
652.63	21427.1	1034.04	10832.9	10726.9	10740.1	10686.5	10644.5	10650.3	10549.1	10584.9	10624.9	10591.3	10577.7	10611.9	10589.5	10622.1	10604.3	10598.7	10598.7
652.857	21300.9	1037.28	10891.8	10724.4	10643.4	10685	10664.8	10620.6	10639.4	10637	10549.8	10567.6	10579.2	10620.2	10549.2	10614.4	10587.2	10596.8	10596.8
653.083	21167.6	1046.58	10784.4	10567.2	10570.6	10631.4	10630.2	10566.6	10559.2	10612.2	10521.4	10485.8	10483.2	10491	10509.6	10490.8	10527	10547.8	10547.8
653.309	21054.8	1031.82	10785.8	10578.5	10581.5	10595.5	10552.9	10567.7	10542.9	10526.3	10477.5	10537.1	10430.9	10514.9	10494.9	10466.9	10464.7	10499.5	10499.5
653.535	20974.2	1036.72	10748.8	10627	10535.8	10503.8	10487.8	10483	10519	10489.4	10440.2	10477.4	10456.6	10434.2	10422.6	10393	10460.4	10457.4	10457.4
653.761	20785.7	1029.18	10648.7	10548.6	10464.8	10382.6	10376.8	10435.8	10393.4	10399.4	10362.6	10385.6	10335.6	10391.6	10329.4	10417.6	10323.2	10346	10346
653.987	20642	1041	10609.8	10474	10425	10396.2	10375.8	10351.2	10336.6	10412.4	10365.4	10338.4	10293	10382.8	10389.2	10280.2	10308.6	10246.8	10246.8
654.213	20615.2	1044.1	10592.4	10460.5	10415.3	10429.7	10349.5	10506.3	10311.3	10381.7	10289.1	10356.7	10316.9	10337.1	10384.3	10327.3	10211.1	10344.3	10344.3
654.439	20452.2	1034.82	10514.4	10350.2	10278	10278	10203.6	10183.2	10200.8	10238	10216	10262.8	10229.4	10185.8	10248	10164.6	10222.4	10199.4	10199.4
654.664	20253.1	1039.22	10374.9	10226.8	10196.6	10134.4	10120.2	10117.2	10199.6	10113.6	10101.4	10124.2	10125.8	10122.8	10102.8	10093.4	10072.6	10064.6	10064.6
654.89	20205.2	1039.44	10408.6	10188.9	10187.1	10080.9	10165.7	10015.9	10109.5	10138.3	10058.1	10053.7	10070.3	10041.5	10068.9	10037.3	10118.7	10059.9	10059.9
655.116	19999.9	1025.42	10288.1	10117.7	10092.5	10029.3	9993.74	9957.54	9956.74	9919.34	9988.14	9944.34	9954.14	9966.54	10010.3	9934.14	9994.34	9977.74	9977.74
655.342	19950.9	1041.8	10263.7	10107.3	10047.5	10040.9	9964.9	9975.9	9947.3	10002.1	10035.9	9984.5	9940.1	9976.7	9925.3	9962.7	9953.7	9988.5	9988.5
655.567	19763.2	1037.3	10109.2	10032.4	10062.6	9898.98	9929.98	9909.98	9901.38	9834.98	9885.58	9831.58	9844.18	9934.78	9826.18	9910.38	9863.78	9896.18	9896.18
655.793	19627	1038.52	10075.6	9958.5	9895.5	9897.9	9778.6	9807.7	9854.5	9847.7	9826.1	9791.7	9822.1	9759.5	9812.9	9821.3	9751.9	9780.5	9780.5
656.018	19463.1	1031.6	10024.1	9824.1	9839.7	9782.7	9773.1	9743.5	9751.1	9738.1	9705.5	9700.7	9714.7	9704.7	9753.3	9692.7	9691.5	9724.1	9724.1
656.244	19368.3	1037.62	9947.37	9790.3	9753.1	9712.9	9730.5	9715.9	9683.5	9633.5	9735.1	9700.7	9672.5	9608.7	9672.9	9708.7	9683.7	9627.1	9627.1
656.469	19193.5	1036.16	9802.04	9680.24	9626.84	9605.64	9652.04	9588.84	9580.04	9624.44	9567.64	9597.24	9552.64	9564.64	9562.64	9562.04	9451.44	9572.24	9572.24
656.694	19135	1040.38	9811.17	9650.3	9600.9	9645.3	9586.9	9592.5	9633.7	9633.5	9534.7	9574.1	9535.1	9494.5	9500.9	9561.7	9510.7	9533.5	9533.5
656.92	18995.9	1039.96	9707.17	9621.1	9581.1	9601.5	9567.3	9568.1	9532.1	9471.3	9555.7	9519.1	9526.9	9566.5	9529.1	9502.3	9472.5	9469.9	9469.9
657.145	18871.9	1043.88	9695.33	9582.4	9534.8	9464.6	9514	9421.2	9412.8	9467.4	9428.8	9409.2	9368.2	9480	9420.2	9432.4	9394.2	9489.6	9489.6
657.37	18798.5	1037.04	9681.13	9554.66	9527.26	9459.06	9458.46	9415.26	9431.26	9478.46	9492.06	9425.66	9305.86	9408.06	9406.06	9399.26	9354.86	9391.06	9391.06
657.595	18604.1	1045.78	9584.93	9457.26	9471.06	9273.26	9431.86	9339.06	9402.26	9414.06	9420.46	9397.86	9377.26	9304.66	9312.26	9322.06	9287.66	9353.26	9353.26
657.82	18563.5	1039.4	9534.45	9461.78	9424.38	9414.58	9293.78	9301.78	9363.98	9364.98	9305.98	9251.38	9240.18	9297.58	9306.58	9283.98	9286.58	9270.98	9270.98
658.045	18392.6	1040.36	9470.47	9318	9283.2	9253.8	9222.8	9162.2	9177.8	9246	9189	9213.6	9280	9171.6	9243.4	9163.2	9217	9214.6	9214.6
658.27	18340.8	1036.34	9395.85	9264.98	9217.18	9287.38	9254.18	9176.38	9148.38	9244.58	9238.18	9252.18	9149.58	9126.98	9199.18	9197.58	9158.98	9187.58	9187.58
658.495	18089.7	1032.86	9297.86	9133.66	9149.66	9135.46	9136.66	9129.66	9077.66	9100.86	9087.86	9144.26	9069.26	9125.06	9031.06	9080.86	9033.66	9082.66	9082.66
658.72	18043.5	1038.06	9331.39	9082.46	9156.26	9105.86	9152.06	9129.06	9045.86	9122.06	9059.06	9084.86	9057.66	9094.26	9028.66	9045.46	9107.26	9076.46	9076.46
658.945	17824.7	1039.88	9213.83	9043.9	9043.5	9068.9	8974.3	9000.3	9028.1	8976	8965.7	8963.5	8957.9	8935.1	9005.1	8946.1	8936.3	8981.3	8981.3
659.169	17766.2	1037.5	9174.78	9050.98	8913.58	9012.38	8999.98	8954.78	9006.18	8902.18	8909.38	8919.18	8887.98	8866.58	8883.58	8832.38	8838.38	8915.98	8915.98
659.394	17671.7	1038.88	9097.35	8951.08	8938.28	8929.88	8942.08	8869.48	8928.68	8846.88	8845.28	8936.88	8866.88	8869.08	8835.28	8861.08	8949.88	8831.88	8831.88
659.619	17597.4	1030.08	9099.86	8955.26	8881.66	8859.86	8863.86	8899.66	8966.46	8900.86	8928.26	8827.86	8876.46	8873.06	8858.46	8843.46	8908.06	8833.86	8833.86
659.843	17442	1037.98	8998.53	8898.26	8766.26	8773.26	8871.66	8777.06	8767.86	8766.66	8752.26	8761.06	8726.46	8778.06	8764.46	8822.86	8810.66	8780.86	8780.86
660.068	17208.3	1039.24	8932.49	8764.16	8765.76	8672.76	8759.76	8677.16	8688.96	8720.36	8690.36	8642.16	8706.76	8644.56	8646.16	8644.96	8666.16	8662.56	8662.56
660.292	17013.3	1042.46	8876.93	8718.8	8700.6	8697.6	8647.6	8687.4	8626.4	8649.2	8671	8623	8585.4	8559.6	8666.4	8667.6	8597.2	8602.2	8602.2
660.517	16986.2	1037.54	8785.04	8703.97	8618.57	8600.77	8568.57	8586.77	8642.17	8612.97	8570.97	8648.57	8624.57	8592.77	8627.17	8547.77	8560.17	8521.57	8521.57
660.741	16843.8	1039.46	8737.13	8616.6	8560.4	8542.8	8577.8	8470	8507	8558.8	8561.2	8591.2	8508.2	8530.8	8506.6	8506.4	8458.6	8470.6	8470.6
660.965	16800.1	1029.44	8709.21	8654.84	8575.04	8538.64	8537.84	8481.04	8585.44	8530.04	8494.04	8449.84	8524.24	8526.44	8484.04	8492.84	8536.04	8590.04	8590.04
661.19	16679.1	1038.9	8680.95	8531.48	8551.28	8447.88	8555.08	8485.28	8478.08	8481.88	8454.68	8432.88	8455.88	8446.68	8427.48	8435.28	8447.28	8476.08	8476.08
661.414	16494.2	1034.08	8591.1	8509.7	8507.7	8429.9	8373.9	8394.5	8386.7	8412.7	8396.3	8321.1	8375.7	8419.1	8334.9	8380.1	8323.5	8347.3	8347.3
661.638	16413.1	1040.6	8542.53	8460.8	8359.4	8373.2	8390.6	8339.2	8329	8347.4	8345.4	8312	8343.8	8295	8355.6	8315.6	8335	8275.4	8275.4
661.862	16282	1037.62	8478.16	8349.56	8300.56	8299.16	8342.36	8286.96	8313.76	8297.56	8236.76	8287.36	8285.96	8243.56	8299.36	8184.16	8263.16	8255.36	8255.36
662.086	16114.2	1041.04	8433.73	8294.06	8228.66	8201.86	8172.46	8207.26	8195.26	8226.06	8227.86	8163.06	8213.86	8257.66	8135.66	8158.06	8110.66	8204.66	8204.66
662.31	16094.3	1033.2	8428.27	8318.67	8284.47	8233.87	8186.07	8245.47	8244.47	8169.07	8206.87	8190.07	8206.47	8217.27	8160.87	8184.67	8206.67	8181.87	8181.87
662.534	16057	1029.98	8355.47	8152.27	8163.87	8151.47	8131.27	8162.87	8084.87	8147.27	8118.87	8160.27	8091.27	8098.27	8148.07	8144.27	8115.67	8063.87	8063.87
662.758	15886.4	1035.98	8254.59	8094.92	8105.52	8150.32	8141.52	8069.52	8029.52	8037.32	8048.72	8084.12	8031.72	8007.12	8042.92	8074.72	8073.32	7928.52	7928.52
662.982	15829.8	1026.96	8259.42	8101.02	8121.62	8021.22	8044.22	8038.42	8036.42	8036.02	8021.82	7991.22	8032.82	8019.02	7992.22	8024.62	7977.42	7997.02	7997.02
663.206	15745.8	1034.52	8182.47	8045.74	8012.94	8028.74	8007.34	7991.54	8014.94	8038.74	8003.14	7977.34	7994.94	7961.74	8012.54	8028.14	7953.94	8009.94	8009.94
663.429	15599.3	1038.12	8100.23	7998.16	8002.96	7926.76	7978.56	7983.56	7906.36	7925.16	7891.96	7881.96	7868.36	7828.36	7950.96	7971.76	7883.56	7941.36	7941.36
663.653	15454.7	1037.96	8054.52	7913.59	7902.39	7814.39	7862.59	7871.19	7857.79	7856.59	7878.19	7846.49	7859.59	7840.79	7889.19	7870.99	7862.99	7815.39	7815.39
663.877	15364.9	1038.44	8092.41	7898.08	7890.68	7830.08	7859.48	7848.68	7785.08	7852.48	7808.08	7849.68	7844.08	7857.68	7851.08	7837.68	7824.48	7834.88	7834.88
664.1	15215.9	1035.8	7918.9	7758.3	7784.1	7790.7	7725.5	7767.3	7705.3	7765.5	7736.7	7765.7	7741.9	7794.1	7704.7	7718.3	7670.1	7668.5	7668.5
664.324	15168.8	1037.28	7914.57	7779.04	7763.64	7743.24	7708.44	7764.24	7740.24	7698.44	7702.44	7704.04	7703.04	7757.44	7691.84	7722.24	7750.64	7717.44	7717.44
664.547	14980.7	1033.35	7851.3	7688.9	7656.7	7684.1	7708.1	7621.7	7664.9	7636.9	7616.1	7635.1	7654.3	7582.9	7624.5	7615.7	7605.5	7588.1	7588.1
664.771	14907.8	1037.26	7747.61	7695.54	7675.94	7657.94	7587.94	7660.34	7670.94	7644.34	7622.54	7556.34	7595.34	7562.34	7589.34	7572.94	7642.34	7663.94	7663.94
664.994	14830.7	1042.66	7754.94	7623.14	7647.34	7563.54	7603.14	7555.34	7547.74	7624.54	7615.34	7587.34	7531.14	7539.54	7630.14	7569.34	7536.94	7520.54	7520.54
665.217	14674.6	1035.34	7679.59	7610.72	7540.72	7470.92	7522.72	7513.12	7480.12	7481.32	7530.72	7481.12	7488.92	7502.12	7549.12	7520.52	7470.72	7523.32	7523.32
665.44	14520.7	1041.66	7607.32	7531.59	7500.79	7498.59	7444.39	7405.19	7442.59	7447.59	7439.59	7480.39	7408.19	7423.79	7471.59	7458.19	7461.39	7480.39	7480.39
665.664	14459.6	1040.9	7566.51	7403.64	7430.84	7465.84	7426.84	7351.64	7380.84	7402.84	7398.84	7388.44	7441.64	7473.64	7445.24	7348.84	7393.04	7429.24	7429.24
665.887	14376.3	1036.14	7572.26	7498.06	7407.26	7405.06	7345.06	7407.06	7401.86	7364.86	7356.86	7343.66	7329.46	7423.86	7379.26	7309.66	7313.66	7352.46	7352.46
666.11	14246.5	1031.83	7478.79	7442.52	7391.12	7324.12	7310.32	7329.52	7363.32	7277.52	7272.32	7345.92	7287.52	7325.92	7316.52	7279.32	7297.12	7312.12	7312.12
666.333	14090.5	1036.23	7445.66	7288.66	7286.06	7251.26	7255.66	7249.46	7188.06	7233.46	7237.46	7288.46	7180.66	7217.86	7207.06	7231.06	7216.86	7198.26	7198.26
666.556	14016.7	1040.12	7411.43	7248.56	7258.96	7199.76	7237.56	7230.16	7191.56	7261.16	7246.36	7277.56	7218.76	7221.96	7208.96	7125.76	7204.96	7216.96	7216.96
666.779	13904.9	1037.48	7319.8	7210	7213.2	7149.2	7131.8	7162	7135.8	7184.8	7154.8	7129	7122.8	7109	7137	7156.4	7146.2	7138.8	7138.8
667.002	13848.8	1034.56	7274.01	7174.14	7124.74	7121.14	7081.14	7135.94	7130.34	7076.74	7094.54	7082.14	7084.14	7095.74	7112.14	7025.14	7042.54	7103.64	7103.64
667.224	13697.7	1042.6	7209.59	7090.46	7035.86	7006.66	7033.06	7072.86	6999.66	7042.06	7025.06	6982.26	6963.86	7009.06	7057.66	7014.06	6977.86	6964.06	6964.06
667.447	13615.8	1043.56	7135.01	7031.14	7029.34	6972.34	6958.94	6897.54	6942.74	6989.34	6956.34	6958.54	6956.74	6900.54	6909.74	6924.94	6937.94	6856.34	6856.34
667.67	13583.5	1033.02	7064.71	7012.78	7044.58	6984.18	6950.18	6982.18	6927.98	6972.18	6916.58	6929.38	6967.98	6925.18	6900.58	6946.18	6945.18	6917.78	6917.78
667.893	13384.1	1037.66	7042.51	6961.18	6877.18	6901.38	6936.58	6818.58	6858.18	6919.38	6821.58	6897.18	6888.98	6908.18	6895.78	6844.78	6892.58	6882.58	6882.58
668.115	13366.3	1042.54	7031.05	6959.38	6873.78	6880.48	6905.58	6801.98	6845.38	6888.58	6867.58	6768.98	6939.18	6867.38	6895.38	6897.38	6853.18	6880.58	6880.58
668.338	13228.4	1033.18	6985.67	6924.2	6844	6840.8	6811.2	6826	6773.8	6863.8	6814.2	6824.8	6814	6794.4	6865.4	6771.6	6785.6	6809	6809
668.56	13142.1	1041.94	6919.24	6798.37	6761.17	6781.17	6750.17	6778.97	6765.37	6769.97	6773.97	6774.77	6723.37	6734.17	6783.97	6730.77	6743.97	6698.97	6698.97
668.783	13021.3	1039.3	6874.33	6729.66	6744.46	6750.86	6748.06	6743.66	6664.86	6699.86	6689.66	6681.86	6714.66	6734.86	6670.66	6675.66	6666.66	6653.26	6653.26
669.005	12984.3	1034.18	6830.17	6764.3	6773.7	6712.9	6756.3	6696.1	6732.1	6709.9	6723.9	6656.9	6741.9	6640.7	6693.9	6623.3	6620.9	6666.9	6666.9
669.227	12783.2	1039.96	6742.74	6625.94	6570.74	6620.94	6575.54	6517.54	6611.74	6523.14	6582.14	6579.54	6528.34	6640.54	6568.94	6575.94	6576.54	6555.94	6555.94
669.45	12777.4	1041.42	6738.95	6641.02	6560.42	6601.82	6635.42	6581.62	6596.42	6585.82	6556.02	6523.22	6585.42	6590.02	6634.02	6591.62	6550.22	6555.02	6555.02
669.672	12644.3	1038.44	6647.11	6594.24	6545.64	6484.04	6555.24	6543.24	6506.24	6469.04	6494.04	6489.44	6487.84	6473.04	6522.44	6519.84	6546.64	6499.04	6499.04
669.894	12508.3	1035	6610.76	6557.56	6547.76	6457.96	6503.16	6472.16	6464.36	6471.16	6431.56	6481.56	6475.16	6512.96	6532.16	6455.56	6473.56	6421.96	6421.96
670.116	12463.5	1044.06	6610.27	6577.14	6501.14	6496.34	6484.34	6451.34	6427.54	6492.94	6426.14	6495.54	6461.54	6448.54	6418.34	6356.94	6446.34	6439.54	6439.54
670.338	12397.7	1038.04	6576.4	6510.2	6489.2	6452.8	6427.8	6434.2	6439.6	6438.6	6412.4	6425.8	6436.2	6391.8	6420	6409.2	6374.6	6390	6390
670.56	12248.9	1038.37	6496.61	6357.94	6375.54	6381.14	6377.74	6364.94	6355.14	6404.14	6279.54	6334.94	6341.94	6286.74	6395.74	6302.94	6317.74	6351.54	6351.54
670.782	12170.1	1038.06	6447.62	6412.42	6292.02	6342.82	6351.82	6358.02	6317.42	6352.62	6323.22	6352.22	6300.82	6304.82	6350.62	6282.22	6334.42	6304.22	6304.22
671.004	12097.6	1032.84	6425.68	6344.68	6283.88	6270.88	6264.28	6324.28	6282.08	6294.88	6290.08	6232.28	6287.08	6270.28	6290.88	6305.48	6308.68	6306.88	6306.88
671.226	12059.1	1033.8	6403.43	6365.96	6250.76	6250.96	6268.56	6278.36	6251.16	6228.16	6197.96	6230.76	6214.56	6278.56	6237.16	6223.56	6219.96	6215.76	6215.76
671.448	11939	1042.06	6307.08	6255.08	6183.68	6169.88	6174.68	6127.78	6179.88	6178.88	6153.08	6138.28	6143.08	6113.68	6200.88	6117.08	6182.68	6137.28	6137.28
671.67	11784.2	1040.46	6244.75	6139.02	6127.22	6075.62	6092.82	6131.82	6100.82	6065.22	6149.42	6091.82	6109.62	6087.22	6075.22	6121.62	6064.82	6101.42	6101.42
671.891	11696.1	1032.7	6250.88	6154.98	6154.38	6135.38	6089.58	6104.38	6066.78	6084.18	6073.98	6091.58	6098.78	6128.38	6089.78	6097.98	6093.58	6081.98	6081.98
672.113	11618.6	1040.62	6187.82	6088.02	6054.22	6079.42	6107.62	6101.82	6029.02	6051.02	6036.82	6041.62	6015.62	6033.42	6106.82	6007.02	6039.02	6056.82	6056.82
672.334	11520.2	1029.72	6117.95	6117.48	6056.48	6022.68	6069.48	6035.68	6025.48	5979.88	6000.28	5982.08	6003.08	6009.68	5981.68	5969.48	6016.88	5982.48	5982.48
672.556	11461.5	1038.96	6088.62	6018.52	5990.32	5962.92	5941.52	5990.52	5956.92	5965.52	5918.52	5967.72	5954.32	5955.72	5877.32	5956.12	5942.52	5948.32	5948.32
672.778	11357.5	1037.24	6045.13	5943	5910.4	5913.8	5908.8	5928.8	5904.4	5873.4	5812.6	5889.6	5891.2	5944.8	5833.4	5897.2	5858.6	5878.8	5878.8
672.999	11238.6	1032.38	5996.19	5872.12	5851.92	5880.32	5867.92	5864.32	5867.92	5809.32	5868.72	5899.52	5860.32	5841.12	5877.32	5827.92	5844.72	5868.92	5868.92
673.22	11199.3	1036.86	5962.34	5912.21	5862.81	5826.21	5824.61	5778.61	5784.81	5759.41	5814.21	5795.41	5816.41	5769.41	5815.61	5797.01	5812.81	5858.81	5858.81
673.442	11054.5	1039.56	5867.23	5777.3	5814.7	5719.1	5723.1	5795.3	5755.9	5741.9	5807.9	5785.9	5715.7	5705.9	5736.1	5744.1	5704.5	5704.7	5704.7
673.663	11057.8	1032.2	5867.75	5795.02	5750.42	5729.22	5743.22	5783.82	5697.62	5768.22	5723.22	5734.22	5720.82	5721.22	5733.42	5739.42	5689.02	5740.82	5740.82
673.884	10976.3	1031.93	5848.2	5755.2	5689.6	5741.2	5696.8	5749.6	5747.4	5728.4	5697.6	5723.2	5671.4	5646.6	5661.4	5709.8	5686.2	5652	5652
674.105	10880.2	1039.32	5779.65	5668.78	5675.38	5676.38	5633.78	5720.18	5621.58	5668.78	5625.58	5642.38	5628.38	5610.18	5669.78	5632.98	5649.18	5608.58	5608.58
674.326	10762.7	1035.68	5744.22	5628.62	5655.42	5681.22	5667.62	5608.82	5632.62	5601.42	5595.22	5641.42	5637.02	5547.22	5583.42	5598.62	5599.22	5616.02	5616.02
674.547	10733.2	1030.88	5717.36	5617.76	5650.96	5684.96	5599.76	5567.96	5553.96	5568.36	5565.16	5588.56	5586.16	5545.56	5596.96	5576.96	5599.56	5595.76	5595.76
674.768	10567.4	1038.88	5640.54	5584.14	5616.54	5564.34	5514.14	5536.54	5511.54	5497.94	5497.94	5538.14	5488.34	5505.94	5523.54	5473.74	5445.94	5566.34	5566.34
674.989	10501.9	1036.3	5578.85	5502.78	5555.58	5449.78	5442.38	5469.78	5491.98	5436.18	5476.98	5487.98	5472.58	5469.58	5445.98	5467.38	5452.58	5515.98	5515.98
675.21	10445.8	1038.4	5551.64	5493.04	5485.04	5425.64	5451.84	5444.44	5460.24	5410.84	5450.04	5424.44	5422.44	5384.84	5433.84	5421.44	5433.64	5413.44	5413.44
675.431	10339.2	1040.28	5514.47	5437.34	5434.54	5348.14	5406.54	5357.94	5428.74	5415.54	5408.94	5399.94	5402.94	5322.94	5358.94	5394.34	5405.14	5391.74	5391.74
675.652	10351.9	1039.84	5475.61	5466.14	5423.74	5432.54	5377.14	5376.74	5361.54	5413.14	5423.54	5370.34	5346.14	5393.34	5396.14	5320.74	5377.14	5395.34	5395.34
675.873	10132.9	1033.88	5427.61	5313.88	5302.88	5313.28	5312.08	5346.48	5319.08	5247.68	5295.08	5279.88	5228.48	5263.28	5331.68	5266.48	5302.68	5279.88	5279.88
676.093	10126.1	1036.88	5414.81	5346.94	5324.34	5334.54	5317.34	5259.34	5289.94	5321.34	5282.94	5305.14	5294.34	5327.94	5340.54	5288.94	5246.54	5322.34	5322.34
676.314	10037.8	1018.92	5357.35	5334.88	5315.28	5252.88	5268.88	5282.68	5268.68	5278.08	5325.48	5276.08	5343.08	5286.68	5247.88	5261.88	5263.28	5237.88	5237.88
676.535	9968.14	1047.64	5358.98	5293.18	5273.98	5255.98	5253.98	5274.58	5267.18	5298.18	5313.18	5235.38	5289.18	5269.58	5237.78	5274.38	5227.78	5241.98	5241.98
676.755	9900.67	1038.72	5274.01	5216.08	5204.48	5178.88	5115.28	5193.68	5185.28	5196.68	5177.88	5205.68	5170.28	5198.88	5147.28	5156.68	5127.48	5136.48	5136.48
676.975	9863.75	1039.12	5248.59	5185.86	5165.06	5183.46	5160.26	5142.26	5161.26	5173.66	5140.66	5154.26	5099.26	5147.26	5155.06	5161.86	5164.06	5151.86	5151.86
677.196	9761.71	1037.94	5233.25	5136.52	5071.32	5133.72	5083.12	5115.72	5130.52	5112.12	5139.12	5067.12	5095.72	5072.52	5095.32	5114.52	5121.52	5096.92	5096.92
677.416	9659.15	1038.76	5168.38	5073.18	5066.58	5079.78	5111.78	5054.58	5092.18	5045.38	5051.98	5008.58	5046.38	5017.58	5066.98	5063.58	5049.38	5093.18	5093.18
677.637	9559.51	1046	5117.59	5025.12	5030.12	5019.12	5038.12	5000.52	4989.32	5049.72	5022.32	4963.32	4994.12	5015.72	5020.92	5039.32	5043.92	5011.72	5011.72
677.857	9554.23	1034.45	5118.49	5027.56	5008.56	4999.36	5006.36	4977.36	5003.96	4993.96	4956.96	4968.76	5000.76	4999.16	4975.56	4995.16	5013.76	4934.16	4934.16
678.077	9470.77	1049.1	5069.45	4993.78	4994.38	5013.38	4937.18	5007.78	4960.38	4934.78	4923.18	4946.58	4961.98	4949.98	4956.58	4938.78	4934.58	4918.78	4918.78
678.297	9382.74	1036.36	5012.83	4938.96	4993.56	4984.56	4894.16	4944.56	4876.36	4916.16	4869.96	4900.56	4933.16	4892.36	4896.16	4887.96	4914.36	4902.56	4902.56
678.517	9324.7	1036.82	4957.82	4897.82	4876.82	4892.62	4867.42	4880.22	4905.02	4906.82	4850.02	4876.02	4875.62	4813.82	4886.02	4855.22	4800.82	4864.42	4864.42
678.737	9266.43	1030.18	4930.31	4896.44	4907.64	4861.44	4907.04	4900.24	4845.04	4898.04	4842.24	4894.04	4816.24	4833.44	4778.24	4775.64	4808.64	4866.64	4866.64
678.957	9180.73	1033.54	4909.17	4832.5	4870.9	4842.1	4807.3	4808.5	4858.5	4861.1	4858.3	4858.1	4802.9	4816.1	4765.5	4864.5	4752.1	4824.1	4824.1
679.177	9093.62	1037.74	4876.97	4799.3	4783.3	4825.3	4753.3	4835.1	4796.1	4836.1	4809.9	4757.3	4763.9	4770.9	4790.5	4772.7	4748.7	4802.5	4802.5
679.397	9010.73	1033.66	4835.5	4820.3	4810.9	4776.5	4767.9	4750.9	4741.7	4735.1	4746.5	4720.7	4763.1	4714.1	4759.1	4774.7	4692.7	4745.1	4745.1
679.617	8925.56	1035.9	4795.71	4724.08	4689.68	4767.28	4729.48	4688.08	4697.28	4674.08	4701.48	4719.68	4696.28	4696.68	4727.28	4685.68	4676.48	4720.48	4720.48
679.837	8894.81	1043.66	4759.1	4719.63	4689.83	4721.03	4677.63	4641.83	4629.03	4684.23	4629.23	4630.43	4634.83	4683.43	4625.83	4664.83	4631.43	4652.83	4652.83
680.056	8742.62	1044.12	4687.71	4664.38	4594.98	4587.58	4599.18	4598.58	4606.78	4622.58	4599.98	4603.78	4592.78	4601.58	4607.58	4557.38	4563.38	4601.78	4601.78
680.276	8689.98	1034.39	4632.6	4635	4594.4	4534.8	4552	4604.8	4643.4	4553.2	4558.8	4536	4593.8	4568.6	4545.4	4602.4	4613.2	4562.2	4562.2
680.496	8654.25	1031.98	4646.35	4544.62	4570.82	4582.82	4535.02	4530.82	4570.62	4593.42	4602.42	4546.02	4504.22	4505.62	4535.82	4557.22	4572.02	4502.42	4502.42
680.715	8559.55	1039.76	4547.75	4558.88	4521.28	4500.88	4499.88	4516.08	4502.68	4520.88	4527.48	4499.68	4493.88	4497.68	4535.28	4528.08	4507.08	4515.28	4515.28
680.935	8523.44	1034.86	4586.27	4543.14	4495.14	4481.54	4456.94	4483.54	4514.94	4483.74	4513.74	4540.74	4450.74	4487.34	4480.54	4479.14	4508.94	4469.34	4469.34
681.154	8405.37	1034.76	4504.2	4530.6	4464.6	4469.2	4458.2	4428.6	4436.4	4455.2	4389.6	4426	4437	4425	4418.6	4432.2	4463.4	4414.4	4414.4
681.374	8368.96	1038.52	4477.61	4452.88	4426.28	4432.88	4378.28	4424.08	4418.88	4387.28	4414.28	4429.48	4367.88	4387.28	4405.88	4426.48	4388.88	4421.08	4421.08
681.593	8301.9	1033.86	4473.75	4418.68	4378.28	4415.48	4380.88	4372.48	4396.28	4370.88	4346.68	4405.68	4345.28	4372.68	4411.68	4338.88	4365.88	4367.88	4367.88
681.812	8237.25	1040.12	4448.03	4373.3	4381.3	4385.7	4420.7	4388.9	4351.7	4342.3	4311.5	4333.3	4336.3	4352.5	4353.9	4334.7	4343.5	4343.9	4343.9
682.031	8147.83	1037.36	4406.43	4350.5	4306.5	4313.3	4287.9	4293.7	4286.9	4284.5	4268.3	4278.7	4265.3	4284.3	4289.1	4241.3	4316.3	4280.5	4280.5
682.251	8110.2	1039.72	4393.59	4323.52	4332.52	4305.92	4264.32	4268.12	4258.72	4233.92	4271.52	4256.32	4298.92	4281.52	4259.52	4257.52	4249.72	4271.92	4271.92
682.47	8054.68	1027.7	4378.37	4362.64	4282.44	4293.24	4282.84	4206.44	4251.24	4266.24	4253.64	4285.84	4249.24	4269.04	4244.64	4245.44	4259.84	4252.04	4252.04
682.689	8004.69	1038.82	4298.51	4261.04	4248.84	4242.24	4252.64	4224.04	4195.84	4227.24	4207.84	4230.24	4232.24	4223.24	4209.84	4199.24	4222.84	4258.64	4258.64
682.908	7880.98	1035.98	4263.27	4170.54	4174.14	4143.54	4177.34	4142.14	4164.34	4177.14	4138.94	4112.74	4144.54	4200.74	4179.94	4180.74	4117.54	4141.14	4141.14
683.127	7877.15	1033.04	4246.5	4213.3	4116.3	4209.9	4193.5	4191.3	4171.9	4149.7	4163.5	4136.1	4155.3	4121.1	4143.1	4070.9	4180.7	4134.9	4134.9
683.346	7812.75	1032.94	4175.22	4140.22	4163.82	4133.22	4113.42	4155.22	4157.42	4105.42	4081.02	4149.22	4194.02	4090.22	4103.42	4095.42	4160.42	4146.82	4146.82
683.565	7762.4	1040.48	4167.68	4169.88	4113.88	4142.48	4113.28	4078.88	4096.68	4083.88	4072.28	4073.88	4093.28	4060.08	4094.88	4117.28	4116.88	4142.88	4142.88
683.783	7642	1037.74	4105.57	4065.64	4055.64	4031.24	4040.04	4073.64	4084.24	4099.64	4053.64	4017.24	4028.24	4040.84	4060.44	4017.24	4019.24	4031.24	4031.24
684.002	7583.34	1041.72	4114.61	4064.14	4050.14	4101.14	4017.34	4018.34	4046.94	4035.74	4035.94	3972.74	4011.54	4020.14	4016.14	4003.94	4037.14	4034.94	4034.94
684.221	7500.61	1039.64	4040.23	4041.5	3995.3	4022.3	3940.7	4012.5	3991.1	3988.3	4007.3	3968.3	3949.5	3994.3	3994.9	3980.9	4009.1	3984.1	3984.1
684.439	7464.19	1030.74	4046.49	3964.56	3993.36	3998.36	3952.36	3964.96	4009.96	4002.76	4008.76	3930.96	3971.76	4004.76	3985.96	3934.16	3983.96	3929.36	3929.36
684.658	7446.35	1038	4055.88	3969.48	3965.28	4016.28	3987.88	3978.28	3981.28	3939.68	3971.48	3935.88	4005.88	3964.88	3979.28	3919.48	3941.48	3922.28	3922.28
684.877	7354.01	1038.14	3984.95	3973.82	3913.62	3902.42	3913.62	3937.22	3968.82	3926.62	3884.02	3911.02	3949.02	3949.22	3901.22	3878.02	3873.02	3896.02	3896.02
685.095	7267.18	1031.34	3973.67	3963.14	3864.34	3871.14	3913.54	3901.94	3876.74	3871.54	3839.14	3835.54	3870.74	3888.34	3879.14	3837.34	3850.34	3864.74	3864.74
685.314	7254.18	1047.78	3936.8	3933.4	3853.4	3865	3846.2	3849.6	3906	3833	3843.6	3834.8	3824	3870.4	3850.2	3856.2	3821.8	3865.2	3865.2
685.532	7163.94	1038.74	3882.51	3830.44	3803.04	3832.84	3818.24	3801.84	3789.64	3829.24	3806.04	3808.44	3806.44	3799.04	3792.44	3845.84	3778.44	3788.84	3788.84
685.75	7108.26	1029.52	3867.03	3770.9	3845.3	3802.1	3814.5	3777.9	3770.7	3836.5	3814.5	3771.9	3774.1	3812.1	3784.5	3772.5	3779.3	3774.7	3774.7
685.969	7018.38	1047.7	3845.68	3840.55	3810.55	3816.35	3747.95	3704.95	3775.95	3814.35	3750.75	3705.75	3757.35	3745.35	3731.35	3741.75	3756.35	3747.15	3747.15
686.187	7028.14	1034.7	3835.34	3760.94	3771.14	3727.74	3744.94	3769.54	3760.94	3722.94	3714.54	3726.14	3756.34	3740.94	3698.94	3794.34	3777.54	3758.94	3758.94
686.405	6937.99	1041.68	3820.23	3690.5	3746.1	3711.1	3748.7	3711.3	3764.9	3734.9	3715.1	3709.9	3682.5	3723.5	3700.5	3728.3	3709.9	3676.1	3676.1
686.623	6854.34	1038.3	3778.73	3724.26	3736.86	3668.26	3702.06	3728.06	3689.66	3668.86	3649.86	3700.86	3651.06	3679.06	3709.26	3706.46	3666.06	3659.46	3659.46
686.841	6817.46	1040.48	3706.41	3688.48	3662.68	3643.68	3667.28	3664.28	3688.28	3685.88	3628.48	3663.08	3656.48	3657.88	3679.88	3676.28	3637.48	3640.48	3640.48
687.059	6749.65	1032.5	3727.47	3658.6	3655	3623.2	3635.6	3647	3642.6	3637.8	3611.6	3659.8	3617.8	3612.2	3630.2	3618.8	3606.2	3669.2	3669.2
687.277	6706.43	1028.08	3689.95	3637.62	3628.42	3580.62	3602.82	3584.02	3631.82	3603.02	3626.62	3581.02	3614.02	3655.02	3575.82	3593.42	3588.82	3626.42	3626.42
687.495	6647.85	1036.7	3616.77	3550.84	3589.64	3602.04	3619.64	3557.64	3568.44	3577.04	3566.24	3548.24	3539.84	3577.44	3570.44	3594.84	3558.04	3558.64	3558.64
687.713	6600.43	1043.22	3615.91	3552.44	3574.64	3544.24	3564.24	3547.24	3502.84	3535.64	3558.04	3534.64	3510.64	3494.24	3499.44	3578.84	3531.04	3524.24	3524.24
687.931	6523.21	1033.88	3558.89	3556.16	3550.56	3538.36	3507.16	3506.76	3479.36	3515.16	3521.56	3482.36	3492.36	3509.16	3523.96	3518.96	3485.56	3491.76	3491.76
688.148	6484.01	1035.76	3546.74	3533.94	3525.34	3504.34	3453.94	3503.14	3485.94	3470.94	3486.94	3477.14	3537.94	3453.94	3511.94	3479.14	3456.94	3455.74	3455.74
688.366	6446.71	1032.17	3568.15	3498.82	3532.42	3478.02	3463.62	3455.22	3504.62	3500.22	3531.02	3425.62	3414.42	3439.02	3492.02	3457.22	3490.62	3456.62	3456.62
688.584	6376.78	1033.82	3516.07	3467.34	3439.54	3482.54	3439.14	3485.34	3407.54	3401.34	3396.74	3425.74	3430.34	3404.74	3475.54	3419.54	3405.34	3416.54	3416.54
688.801	6334.58	1045.5	3471.38	3418.58	3405.18	3429.18	3396.18	3388.38	3433.78	3424.58	3392.78	3408.18	3418.78	3356.38	3427.38	3445.78	3443.58	3377.18	3377.18
689.019	6268.1	1025.9	3448.95	3411.62	3388.62	3441.42	3406.22	3383.82	3427.62	3407.22	3394.42	3378.82	3422.02	3395.62	3369.82	3402.62	3383.82	3351.62	3351.62
689.236	6256.48	1037.58	3443.76	3360.96	3389.36	3376.96	3413.76	3334.16	3358.16	3349.36	3396.16	3342.96	3401.56	3353.36	3363.76	3390.76	3358.16	3340.76	3340.76
689.454	6180.12	1038.64	3405.69	3396.56	3363.16	3335.96	3327.56	3336.16	3335.56	3337.16	3326.56	3343.76	3326.16	3387.36	3329.26	3327.76	3353.16	3329.36	3329.36
689.671	6147.26	1035.88	3371.08	3366.48	3330.28	3343.58	3336.48	3282.28	3283.68	3315.28	3280.48	3318.28	3325.88	3327.28	3335.48	3345.68	3336.08	3324.28	3324.28
689.888	6130.58	1037.03	3386.11	3319.18	3359.58	3281.98	3326.18	3318.98	3275.38	3283.58	3289.98	3281.98	3313.78	3273.78	3311.58	3300.38	3296.58	3283.78	3283.78
690.105	6023.69	1036.06	3322.49	3262.02	3245.22	3267.02	3240.42	3235.82	3248.82	3236.82	3233.42	3218.42	3240.62	3207.42	3237.62	3275.42	3253.82	3249.22	3249.22
690.323	5967.37	1040.92	3277.42	3237.42	3229.82	3198.62	3198.42	3237.42	3237.42	3196.82	3248.02	3223.62	3216.22	3212.42	3239.02	3204.62	3182.82	3214.42	3214.42
690.54	5941.45	1040.84	3245.23	3234.9	3231.5	3191.9	3206.3	3241.3	3237.9	3254.5	3215.9	3211.5	3232.1	3226.1	3208.3	3202.5	3141.9	3150.9	3150.9
690.757	5887.48	1037.04	3215.77	3161.7	3160.7	3113.1	3169.7	3164.1	3220.5	3229.5	3177.1	3176.9	3159.7	3185.9	3123.7	3149.5	3174.9	3153.9	3153.9
690.974	5859.25	1030.8	3211.37	3187.3	3201.5	3179.1	3178.1	3126.3	3168.9	3184.9	3164.9	3175.5	3149.5	3158.1	3095.7	3079.7	3161.7	3165.7	3165.7
691.191	5788.74	1029.94	3175.61	3150.28	3110.08	3109.28	3100.88	3114.88	3087.28	3124.28	3131.88	3149.68	3138.08	3130.68	3138.88	3108.68	3135.88	3075.08	3075.08
691.408	5730.55	1031.26	3150.97	3130.44	3082.84	3107.04	3093.24	3118.44	3063.44	3089.44	3099.84	3045.24	3072.84	3075.64	3105.44	3086.64	3100.64	3058.44	3058.44
691.625	5667.49	1039.6	3127.71	3119.84	3060.64	3066.44	3067.04	3062.84	3082.44	3068.64	3066.84	3080.64	3050.64	3064.24	3093.64	3017.04	3117.44	3040.04	3040.04
691.842	5633.63	1042.5	3150.87	3088.14	3066.34	3087.74	3061.94	3071.94	3089.94	3071.74	3060.74	3080.94	3069.14	3089.94	3067.94	3035.54	3027.94	3070.14	3070.14
692.058	5575.98	1034.78	3097.43	3094.36	3020.96	3065.96	3037.76	3064.36	3010.96	3017.36	3039.16	3011.96	2998.36	3009.96	3014.36	3038.16	3037.76	3018.56	3018.56
692.275	5546.93	1033.4	3085.38	3068.58	3052.78	3032.38	2989.78	3023.78	3018.38	3004.78	3030.18	3000.38	3025.98	2997.78	3016.58	3022.58	2998.98	2983.18	2983.18
692.492	5482.35	1031.02	3017.59	3011.86	3015.86	2988.26	2989.66	2995.46	2938.26	2964.86	3005.66	2980.46	3000.26	2985.86	3025.66	3001.66	3024.26	2996.06	2996.06
692.708	5417.94	1035.16	3003.01	3033.48	2942.68	2949.48	2963.08	2978.28	2931.28	2960.68	2976.48	2951.88	2948.88	2902.28	2957.28	2970.88	2941.48	2946.48	2946.48
692.925	5379.18	1037.44	2996.61	2973.94	2962.14	2961.14	2956.34	2965.34	2943.94	2976.14	2932.54	2959.74	2966.14	2915.34	2927.54	3002.74	2954.34	2932.14	2932.14
693.141	5346.81	1034.22	2980.01	2969.48	2927.48	2903.68	2898.88	2923.68	2933.88	2958.28	2985.28	2922.48	2901.88	2942.88	2889.28	2922.88	2901.88	2873.88	2873.88
693.358	5318.1	1040.34	2954.03	2922.1	2941.7	2942.1	2871.9	2915.1	2895.7	2941.5	2930.3	2899.5	2868.9	2882.1	2920.9	2914.1	2908.7	2889.5	2889.5
693.574	5275.68	1042.36	2905.01	2894.94	2920.74	2863.54	2846.54	2857.14	2906.54	2853.74	2868.54	2842.94	2907.74	2866.54	2841.74	2859.34	2871.54	2865.94	2865.94
693.791	5243.77	1035.3	2900.99	2881.66	2826.26	2889.06	2850.26	2846.66	2825.26	2856.86	2848.06	2866.06	2860.06	2908.46	2859.46	2858.06	2837.66	2875.26	2875.26
694.007	5160.37	1026.54	2884.07	2884.54	2830.74	2816.34	2851.54	2813.14	2810.94	2838.94	2767.94	2836.74	2810.14	2803.94	2819.34	2808.14	2792.74	2783.34	2783.34
694.223	5124	1035.56	2849.75	2815.48	2823.88	2787.48	2791.68	2757.08	2769.68	2773.28	2772.08	2814.88	2781.68	2808.28	2817.28	2742.48	2773.28	2807.88	2807.88
694.439	5088.45	1027.8	2815.01	2803.08	2759.28	2811.08	2776.68	2766.48	2742.48	2784.68	2765.28	2769.28	2760.08	2782.08	2768.68	2796.48	2800.28	2762.28	2762.28
694.655	5060.32	1042.66	2837.36	2741.76	2776.96	2739.76	2726.36	2772.56	2792.36	2809.96	2771.56	2762.56	2764.56	2758.76	2778.36	2719.56	2798.96	2753.76	2753.76
694.872	5003.28	1030.8	2800.09	2774.42	2744.02	2742.62	2762.42	2790.62	2757.42	2732.82	2738.42	2763.82	2746.62	2749.42	2752.42	2781.62	2710.22	2736.22	2736.22
695.088	4962.88	1035.66	2752.6	2759	2758.4	2730.6	2707	2707.6	2709.4	2706.2	2688	2725	2731.8	2718	2716.2	2712.6	2726.6	2700.8	2700.8
695.304	4952.77	1045.1	2763.85	2709.78	2707.98	2692.18	2733.78	2661.18	2676.38	2711.78	2709.78	2694.98	2683.18	2700.58	2699.78	2685.38	2703.58	2707.38	2707.38
695.519	4878.22	1040.4	2745.41	2714.28	2681.28	2642.48	2662.48	2660.88	2675.68	2704.48	2707.28	2660.88	2677.28	2646.88	2686.68	2682.08	2648.68	2667.68	2667.68
695.735	4851.82	1035.5	2724.3	2661.7	2684.5	2678.7	2673.5	2680.9	2626.9	2642.1	2645.7	2634.5	2711.5	2665.3	2649.3	2652.9	2692.7	2671.1	2671.1
695.951	4813.14	1034.61	2704.67	2614.94	2686.34	2675.34	2651.34	2646.74	2651.94	2671.34	2632.94	2633.94	2633.54	2635.94	2652.14	2635.34	2624.14	2682.94	2682.94
696.167	4777.39	1030.44	2677.68	2634.08	2645.68	2631.88	2637.68	2607.08	2643.08	2623.48	2649.48	2614.48	2598.48	2619.48	2631.08	2615.48	2607.68	2637.88	2637.88
696.383	4731.44	1037.68	2664.29	2634.62	2648.22	2676.02	2620.42	2592.02	2588.02	2610.02	2615.22	2614.22	2617.02	2569.82	2596.82	2584.02	2573.62	2615.02	2615.02
696.598	4660.71	1037.52	2631.59	2593.46	2603.66	2580.26	2589.66	2564.86	2620.86	2590.06	2551.86	2614.66	2586.26	2583.26	2603.66	2541.26	2580.46	2553.26	2553.26
696.814	4636.11	1028.22	2598.32	2559.12	2587.52	2558.52	2561.12	2554.32	2558.52	2608.52	2603.92	2578.12	2542.92	2528.12	2569.32	2515.12	2530.32	2561.92	2561.92
697.029	4601.44	1034.02	2591.19	2547.26	2562.06	2557.06	2533.66	2547.26	2569.46	2548.66	2587.06	2497.26	2578.06	2563.46	2548.66	2522.46	2568.06	2566.46	2566.46
697.245	4588.79	1033.32	2583.09	2532.36	2545.56	2550.56	2518.36	2538.56	2535.16	2543.56	2518.76	2549.56	2540.36	2529.56	2545.36	2524.16	2532.56	2538.76	2538.76
697.46	4510.59	1042.62	2542.18	2548.58	2466.98	2489.78	2511.58	2519.58	2480.78	2455.18	2505.78	2490.58	2464.38	2500.58	2471.78	2501.18	2503.38	2450.38	2450.38
697.676	4501.93	1036.9	2550.2	2454.4	2474.4	2477	2468.2	2492.2	2466.8	2482.6	2501	2451	2479.8	2495.8	2442.8	2487.8	2467	2478.4	2478.4
697.891	4470.2	1038.9	2513.35	2470.02	2512.02	2487.02	2486.42	2460.22	2461.02	2437.62	2447.62	2460.22	2491.82	2446.62	2458.02	2456.42	2491.02	2462.42	2462.42
698.106	4443.51	1033.94	2501.57	2483.7	2458.9	2443.3	2479.9	2426.5	2461.7	2454.1	2414.7	2446.7	2424.5	2454.1	2437.1	2434.1	2474.1	2457.3	2457.3
698.321	4368.61	1029.34	2458.66	2429.06	2418.46	2415.46	2396.86	2403.46	2388.86	2378.06	2412.66	2388.06	2421.46	2421.06	2402.66	2403.86	2367.46	2406.46	2406.46
698.537	4351.03	1036.74	2444.8	2374.2	2392	2354	2418.4	2397.2	2371.8	2377	2378.8	2383.2	2381	2375.4	2380.6	2363.8	2387.4	2383.6	2383.6
698.752	4305.37	1037.76	2432.88	2427.28	2387.68	2376.28	2376.28	2372.28	2370.28	2421.08	2364.08	2351.48	2421.88	2371.48	2385.08	2381.68	2370.88	2374.08	2374.08
698.967	4264.73	1039.44	2415.57	2385.5	2352.3	2353.9	2360.5	2346.5	2387.5	2399.3	2338.5	2339.3	2366.7	2367.1	2363.1	2373.9	2398.7	2364.5	2364.5
699.182	4229.14	1044.52	2418.07	2338.4	2363.6	2352.6	2371.4	2338.6	2401.6	2336.8	2344	2337.4	2355.8	2357.4	2332.2	2376.2	2334.6	2322.2	2322.2
699.397	4196.74	1043.02	2397.63	2368.3	2370.7	2355.9	2295.5	2328.9	2346.7	2334.7	2331.7	2346.1	2355.3	2324.9	2336.9	2330.5	2333.9	2324.1	2324.1
699.612	4135.4	1034.5	2350	2320	2301.2	2287.8	2324.4	2296	2298.2	2296.8	2318	2311	2268.2	2287.6	2312.6	2268.2	2279.2	2293.6	2293.6
699.826	4124.94	1031.32	2340.54	2303.54	2290.34	2296.94	2268.54	2253.74	2237.34	2251.74	2278.14	2294.34	2284.34	2261.34	2261.34	2295.54	2266.14	2292.54	2292.54
700.041	4081.51	1034.2	2285.59	2264.12	2234.12	2279.52	2242.32	2216.32	2266.92	2258.32	2198.32	2253.52	2240.12	2224.72	2225.12	2284.92	2241.52	2271.12	2271.12
700.256	4053.19	1034.58	2294.13	2250.06	2246.86	2222.86	2230.46	2250.46	2213.66	2208.46	2259.66	2258.46	2233.06	2230.06	2213.46	2262.86	2275.06	2243.26	2243.26
700.471	3990.01	1040.46	2262.78	2251.58	2220.98	2200.18	2235.58	2240.18	2239.58	2231.98	2246.18	2244.18	2245.98	2209.98	2206.38	2207.98	2211.38	2210.98	2210.98
700.685	3974.81	1027.62	2245.25	2224.52	2239.92	2218.92	2221.52	2175.52	2182.72	2182.52	2184.92	2229.72	2204.92	2229.52	2172.72	2200.32	2228.52	2199.32	2199.32
700.9	3927.8	1030.42	2228.07	2213.4	2182.4	2196.4	2182.4	2161.2	2205.2	2177.8	2190.2	2226.8	2176.8	2184.2	2179.2	2200.4	2170.8	2191.2	2191.2
701.114	3907.58	1039.78	2215	2208.6	2203.2	2171	2169.8	2180.8	2164.4	2194.4	2172.8	2183.4	2193.6	2207.2	2172.4	2149	2119.8	2203	2203
701.329	3862.59	1040.8	2194.62	2206.02	2145.22	2163.22	2144.62	2139.22	2167.62	2134.22	2168.02	2163.22	2156.62	2185.42	2162.22	2167.42	2164.22	2195.22	2195.22
701.543	3825.07	1045.11	2160.77	2145.7	2155.9	2134.7	2143.1	2126.7	2129.1	2133.5	2165.3	2150.9	2126.3	2148.7	2162.1	2102.5	2137.3	2153.5	2153.5
701.758	3805.65	1041.7	2157.63	2130.9	2128.5	2116.9	2070.3	2136.3	2102.5	2113.3	2089.1	2142.1	2128.5	2092.7	2128.5	2116.9	2126.3	2116.1	2116.1
701.972	3782.24	1034.18	2164.54	2089.34	2153.34	2103.94	2096.34	2097.74	2126.14	2097.14	2100.14	2127.94	2088.94	2099.74	2076.94	2094.74	2072.74	2084.14	2084.14
702.186	3718.55	1035.84	2120.57	2096.9	2100.7	2103.7	2077.3	2107.1	2093.3	2064.5	2103.3	2081.1	2102.5	2072.5	2073.9	2061.9	2084.5	2029.3	2029.3
702.4	3725.22	1032.8	2119.81	2037.88	2095.28	2070.88	2081.88	2085.68	2101.08	2097.88	2077.28	2067.88	2090.48	2097.88	2063.48	2079.28	2103.68	2032.48	2032.48
702.615	3692.55	1033.78	2122.25	2109.18	2120.58	2114.58	2066.98	2083.18	2072.38	2081.98	2082.98	2015.98	2066.18	2056.78	2058.78	2076.38	2055.78	2067.18	2067.18
702.829	3651.76	1038.16	2093.44	2044.94	2037.44	2030.04	2057.24	2055.64	2051.84	2087.64	2020.84	2039.44	2029.84	2044.84	2058.44	2016.84	2014.44	2059.84	2059.84
703.043	3623.73	1041.47	2076.51	2049.24	2026.84	2033.64	2003.84	2020.24	2006.44	2030.44	2060.84	2003.24	2012.24	2031.84	2020.84	2036.84	2054.84	2019.44	2019.44
703.257	3562.66	1038.84	2037.07	1987.4	1992.2	2004.6	1981.2	1984.2	2022.6	1978.4	2027.4	1991.2	1983	2016	2006.8	2039	1984.6	1973.2	1973.2
703.471	3551.23	1025.56	2003.01	1976.34	1984.14	1951.54	1972.14	1956.94	1972.74	1981.14	2023.74	1966.14	1957.34	1952.54	1980.74	2006.74	1975.34	1980.54	1980.54
703.684	3530.23	1042.12	2011.67	1950.54	1969.34	1943.54	1968.94	1977.94	1964.74	1970.94	1946.74	1963.14	1940.74	1972.34	1949.94	1941.34	1954.14	1943.34	1943.34
703.898	3491.92	1035.22	1992.54	1974.14	1910.74	1985.34	1937.74	1955.34	1971.34	1938.94	1939.34	1942.94	1918.74	1945.74	1948.74	1942.14	1914.54	1944.34	1944.34
704.112	3465.58	1031.02	1976.77	1964.3	1954.3	1920.5	1957.3	1961.9	1888.1	1916.5	1944.7	1927.7	1933.3	1921.3	1913.7	1923.9	1908.5	1927.5	1927.5
704.326	3438.08	1033.5	1953.35	1958.02	1885.82	1911.42	1933.42	1940.22	1951.82	1924.62	1925.42	1875.62	1918.42	1901.62	1939.82	1920.82	1919.62	1944.22	1944.22
704.539	3395.97	1039.24	1915.87	1922.94	1917.54	1901.94	1898.74	1917.54	1921.34	1931.14	1896.54	1899.14	1934.14	1896.34	1906.74	1903.34	1862.54	1886.94	1886.94
704.753	3341.5	1032.02	1905	1878.8	1873.6	1875.4	1866.8	1889.6	1900.8	1867.2	1884.4	1911.2	1891	1893.4	1859.4	1883	1884.4	1852.6	1852.6
704.967	3365.22	1038.62	1922.87	1905.8	1891.2	1885.6	1880.6	1894.4	1894	1886.8	1862.8	1861	1879.4	1875.6	1840	1852	1874.4	1867.4	1867.4
705.18	3306.7	1046.62	1885.14	1829.74	1855.94	1861.74	1825.14	1861.14	1866.54	1880.94	1866.54	1852.14	1835.34	1837.94	1836.34	1842.14	1849.54	1830.14	1830.14
705.394	3284.47	1038.24	1895.05	1849.78	1866.58	1869.18	1859.58	1848.58	1861.58	1833.98	1834.58	1854.98	1832.38	1793.18	1851.18	1859.98	1859.58	1834.78	1834.78
705.607	3277.98	1028.08	1871.52	1841.99	1833.99	1858.39	1792.19	1811.59	1853.99	1815.19	1820.59	1815.19	1840.59	1831.99	1830.39	1835.59	1830.59	1843.59	1843.59
705.82	3236.45	1033.12	1857.2	1848.2	1817.2	1855	1835.8	1818.6	1813.7	1796.2	1837.8	1824.2	1814.6	1849	1817.8	1817	1801.8	1841.4	1841.4
706.034	3193.06	1042.34	1805.89	1870.62	1816.02	1829.22	1746.02	1808.22	1785.22	1818.42	1798.22	1812.62	1797.02	1817.82	1770.62	1781.62	1793.42	1798.82	1798.82
706.247	3163.8	1038.6	1803.91	1826.58	1760.18	1767.58	1773.98	1783.98	1806.58	1769.38	1781.18	1786.58	1775.98	1813.38	1774.38	1785.18	1787.78	1806.38	1806.38
706.46	3163.2	1032.38	1805.42	1774.02	1788.42	1825.02	1764.42	1772.42	1762.02	1778.02	1782.82	1759.22	1802.42	1781.82	1773.82	1771.82	1736.22	1762.02	1762.02
706.673	3117.47	1036.16	1789.46	1740.26	1720.06	1721.26	1756.66	1739.66	1753.86	1800.06	1747.86	1731.86	1751.26	1739.26	1725.86	1783.06	1781.66	1726.66	1726.66
706.886	3088.21	1034.36	1773.64	1749.64	1752.64	1734.04	1718.44	1720.44	1726.84	1727.44	1724.24	1701.44	1727.64	1719.24	1763.44	1738.84	1752.24	1727.04	1727.04
707.099	3067.27	1029.8	1761.02	1706.02	1731.82	1710.62	1694.02	1699.02	1738.02	1741.02	1722.62	1744.02	1744.22	1733.82	1695.82	1749.82	1742.42	1739.02	1739.02
707.312	3037.44	1040.46	1733.11	1730.24	1707.24	1737.44	1668.24	1736.84	1718.04	1686.84	1714.64	1745.44	1706.24	1696.64	1734.84	1722.24	1725.64	1719.64	1719.64
707.525	3007.22	1040.74	1722.97	1711.44	1721.44	1731.24	1697.64	1723.84	1690.64	1730.44	1673.04	1718.44	1702.44	1690.84	1685.44	1730.04	1704.64	1708.84	1708.84
707.738	2990.81	1039.8	1725.85	1705.58	1667.98	1710.78	1696.38	1675.78	1696.98	1712.38	1688.78	1680.78	1680.38	1694.38	1681.78	1682.58	1704.78	1704.78	1704.78
707.951	2964.5	1043.12	1680.16	1672.96	1675.96	1678.16	1692.56	1632.96	1639.56	1657.76	1680.96	1693.36	1650.76	1656.16	1702.36	1657.16	1634.56	1699.16	1699.16
708.163	2929.31	1045.68	1680.01	1613.94	1650.14	1658.74	1672.54	1619.34	1616.34	1665.74	1638.14	1633.94	1613.94	1633.14	1625.94	1634.74	1600.14	1668.34	1668.34
708.376	2898.54	1042.5	1672.16	1644.63	1600.83	1653.03	1624.03	1599.63	1617.23	1685.63	1664.43	1598.23	1629.63	1643.43	1647.03	1638.03	1628.83	1617.23	1617.23
708.589	2854.53	1035.64	1636.85	1669.32	1613.52	1607.92	1625.92	1645.52	1623.12	1647.12	1640.32	1595.52	1610.52	1628.32	1621.92	1620.92	1593.92	1588.92	1588.92
708.801	2853.94	1036.72	1615.31	1619.98	1632.18	1618.58	1632.18	1603.78	1613.18	1598.78	1609.58	1611.78	1628.98	1568.58	1610.98	1582.38	1614.18	1598.18	1598.18
709.014	2835.82	1037.84	1610.87	1608.94	1613.54	1597.34	1584.74	1535.94	1574.34	1579.34	1609.54	1592.74	1609.34	1628.14	1551.94	1559.54	1594.54	1597.74	1597.74
709.226	2804.85	1034.75	1595.95	1557.35	1581.15	1601.55	1571.35	1563.55	1558.55	1571.75	1569.55	1558.75	1571.95	1549.35	1552.15	1626.95	1548.75	1557.15	1557.15
709.439	2771.27	1047.8	1584.35	1561.82	1526.22	1565.82	1603.62	1585.42	1549.22	1570.02	1564.02	1569.22	1586.62	1588.82	1574.82	1591.02	1560.22	1569.02	1569.02
709.651	2759.71	1046.48	1574.45	1541.42	1558.12	1562.72	1584.32	1567.12	1573.72	1576.72	1542.32	1558.72	1537.52	1568.72	1562.32	1563.12	1524.92	1553.52	1553.52
709.864	2741.21	1037.36	1577.55	1559.08	1559.68	1540.08	1549.88	1538.48	1555.48	1537.08	1545.28	1552.08	1541.88	1563.88	1544.88	1543.88	1543.08	1538.88	1538.88
710.076	2700.49	1030	1539.01	1533.61	1524.81	1505.81	1524.01	1527.41	1541.01	1521.01	1523.81	1509.61	1492.01	1555.01	1505.61	1523.01	1533.81	1546.01	1546.01
710.288	2673.31	1029.08	1537.48	1516.68	1495.08	1534.88	1498.48	1501.48	1514.88	1487.08	1488.28	1494.68	1518.28	1495.48	1524.88	1525.28	1509.28	1507.88	1507.88
710.5	2645.02	1033.64	1529.45	1514.78	1492.98	1479.58	1512.98	1509.18	1476.38	1458.38	1491.18	1475.38	1511.58	1471.58	1493.58	1485.78	1487.98	1471.58	1471.58
710.712	2607.23	1042.9	1502.49	1474.62	1475.02	1441.22	1502.62	1496.02	1474.82	1481.42	1515.82	1447.22	1526.22	1501.62	1484.42	1508.22	1483.22	1487.62	1487.62
710.924	2587.23	1029.18	1503.53	1483.06	1492.66	1486.46	1497.06	1467.86	1470.26	1458.86	1450.46	1439.86	1488.66	1460.06	1464.06	1464.66	1437.86	1453.66	1453.66
711.136	2563.77	1041.8	1482.1	1466.3	1436.1	1455.7	1447.9	1467.1	1470.3	1448.9	1460.5	1431.3	1439.9	1423.7	1473.9	1421.5	1446.9	1449.5	1449.5
711.348	2534.52	1033.16	1474.99	1452.32	1438.32	1440.12	1473.72	1401.52	1451.32	1428.32	1429.32	1416.32	1449.52	1404.92	1432.52	1432.52	1441.12	1461.52	1461.52
711.56	2524.4	1041.36	1444	1452.4	1433	1447.6	1442.4	1426.4	1448.6	1462.5	1434.6	1417.6	1429.4	1449.4	1430.8	1427.4	1448	1413	1413
711.772	2462.63	1039.46	1426.26	1443.26	1429.86	1417.86	1447.86	1426.26	1428.46	1415.86	1443.06	1431.86	1400.66	1410.26	1383.66	1408.86	1432.86	1420.06	1420.06
711.984	2457.18	1034.08	1410.21	1411.34	1403.24	1400.94	1411.14	1418.34	1385.94	1374.54	1431.74	1402.74	1371.54	1382.34	1413.94	1414.94	1416.94	1410.94	1410.94
712.195	2439.71	1038.3	1414.17	1389.64	1383.24	1439.84	1414.04	1395.64	1408.64	1394.44	1393.64	1388.04	1407.24	1390.64	1377.44	1390.24	1378.24	1404.84	1404.84
712.407	2405.92	1036.3	1406.75	1415.02	1341.02	1342.62	1357.02	1356.62	1359.62	1349.42	1355.22	1378.02	1369.22	1378.82	1381.62	1383.62	1366.42	1402.02	1402.02
712.619	2384.7	1033.78	1373.73	1397	1384	1359.4	1318.6	1358.8	1366.8	1337.8	1362.8	1347	1364.4	1351.2	1365.8	1352.2	1383.2	1388.8	1388.8
712.83	2338.27	1032.68	1352.17	1384.44	1368.24	1344.24	1316.24	1333.84	1363.44	1308.24	1315.24	1364.64	1359.04	1349.24	1316.24	1335.44	1327.24	1323.24	1323.24
713.042	2326.24	1036.86	1331.07	1315.8	1329	1368.6	1340.8	1347.4	1317.2	1325.8	1263.8	1335.4	1318.2	1357.6	1285.8	1333.4	1338.2	1301	1301
713.253	2296.15	1040.68	1336.74	1313.14	1310.94	1337.94	1291.54	1283.54	1281.74	1336.34	1270.74	1309.14	1317.14	1324.14	1304.74	1309.54	1316.34	1311.14	1311.14
713.465	2284.78	1035.2	1321.99	1304.52	1337.92	1324.72	1301.32	1273.92	1285.12	1342.92	1304.92	1323.72	1295.12	1297.12	1336.72	1311.92	1292.72	1339.72	1339.72
713.676	2254.75	1027.94	1326.53	1360	1289.6	1297.6	1288.2	1339.6	1256.8	1283.8	1288.6	1318.2	1309.8	1287.8	1303.4	1314.6	1286.4	1299.2	1299.2
713.887	2229.58	1034.28	1311.01	1260.48	1262.28	1266.68	1298.68	1278.88	1294.28	1289.88	1274.88	1263.08	1277.68	1285.88	1277.48	1280.08	1271.08	1273.08	1273.08
714.099	2205.85	1045.24	1290.08	1273.28	1264.68	1272.08	1247.68	1299.28	1263.68	1284.28	1279.48	1282.28	1263.08	1249.08	1243.88	1279.08	1252.28	1238.88	1238.88
714.31	2181.04	1036.65	1290.81	1283.08	1277.68	1253.28	1258.08	1263.88	1262.28	1274.28	1268.48	1237.68	1260.28	1250.48	1260.28	1276.08	1271.28	1299.48	1299.48
714.521	2156.51	1038.96	1285.51	1259.64	1258.64	1213.24	1232.04	1255.24	1253.44	1222.04	1227.64	1229.64	1224.84	1236.24	1216.44	1267.24	1254.04	1285.24	1285.24
714.732	2142.01	1035	1277.25	1215.18	1206.18	1236.98	1214.58	1220.58	1211.38	1215.18	1240.18	1222.78	1248.38	1219.18	1201.98	1250.98	1208.38	1255.98	1255.98
714.943	2114.69	1035.68	1230.93	1235.26	1206.66	1225.46	1213.86	1206.06	1234.06	1216.86	1216.26	1203.66	1188.46	1228.86	1196.06	1217.26	1225.46	1231.46	1231.46
715.154	2092.33	1030.34	1231.72	1214.72	1200.12	1225.12	1216.92	1192.52	1205.72	1185.52	1172.72	1206.92	1201.32	1214.72	1206.52	1188.52	1216.12	1209.32	1209.32
715.365	2058.35	1032.4	1194.3	1190.9	1214.1	1214.3	1201.5	1178.3	1166.3	1212.1	1166.9	1184.5	1173.7	1193.1	1175.1	1205.3	1223.7	1155.9	1155.9
715.576	2047.95	1038.38	1218.78	1208.78	1186.98	1197.58	1189.18	1162.38	1160.58	1171.58	1182.98	1208.98	1152.18	1200.58	1186.78	1172.78	1211.38	1172.78	1172.78
715.787	2014.84	1036.66	1187.42	1169.62	1166.22	1160.22	1176.22	1193.02	1151.22	1184.62	1150.02	1180.82	1155.62	1177.22	1122.42	1154.02	1160.62	1184.42	1184.42
715.997	2004.54	1035.5	1180.73	1179.46	1156.06	1195.86	1183.26	1136.26	1173.06	1147.66	1171.26	1193.86	1157.26	1176.26	1132.06	1121.86	1155.86	1138.06	1138.06
716.208	1980.09	1037.14	1159.64	1159.04	1120.64	1101.64	1146.84	1109.84	1121.24	1137.04	1155.64	1169.24	1152.84	1150.64	1140.04	1159.04	1111.04	1137.24	1137.24
716.419	1977.88	1040.9	1140.95	1139.42	1129.42	1116.02	1145.82	1117.62	1149.62	1144.82	1091.22	1146.42	1119.02	1116.02	1116.82	1107.02	1118.62	1130.02	1130.02
716.629	1928.99	1041.78	1108.13	1132.4	1111	1144.6	1134.8	1090	1102	1104.4	1108	1114	1114.4	1121.6	1113.8	1100	1080.4	1104.6	1104.6
716.84	1910.9	1034.84	1095.11	1125.24	1109.84	1114.24	1117.04	1097.04	1102.44	1100.84	1095.24	1077.24	1088.24	1059.24	1099.04	1069.24	1097.04	1069.24	1069.24
717.05	1864.68	1039.92	1100.55	1093.22	1093.22	1113.02	1089.82	1077.22	1110.62	1094.82	1086.42	1057.42	1064.42	1055.02	1079.22	1110.62	1105.02	1096.22	1096.22
717.261	1863.26	1036.46	1093.3	1063.5	1075.3	1077.1	1084.9	1052.1	1063.9	1088.9	1088.1	1054.3	1091.1	1059.5	1062.9	1070.5	1073.5	1069.7	1069.7
717.471	1842.27	1036.58	1087.27	1081.4	1081.4	1049	1083.6	1040.6	1076.6	1106.6	1053	1083.6	1118.8	1063.8	1030.8	1092.4	1079.6	1078	1078
717.682	1814.05	1035.98	1055.84	1060.24	1040.44	1044.44	1043.24	1028.24	1074.64	1042.84	1040.64	1050.44	1053.24	1066.24	1033.24	1054.84	1054.64	1068.84	1068.84
717.892	1788.34	1042.66	1052.41	1045.68	1039.08	1027.88	1062.48	1023.48	1050.88	1049.68	1022.08	1050.48	1079.28	1022.68	1036.08	1048.48	1034.48	1053.08	1053.08
718.102	1758.17	1045.4	1048.04	1046.04	1015.44	1017.64	1026.84	1030.24	1023.44	1036.64	1022.84	1037.44	1027.44	1048.24	1005.44	1048.04	1047.84	1025.34	1025.34
718.312	1747.96	1039.24	1028.25	1032.38	1029.18	1002.98	989.18	1031.18	999.18	1010.38	1056.18	1024.98	1023.98	1002.78	1012.78	1008.98	1016.98	1073.38	1073.38
718.522	1738.67	1045.66	1034.42	1031.15	1036.75	1004.55	1006.15	955.95	998.75	1020.95	1020.55	979.55	1026.75	1046.35	1012.55	1007.95	996.15	1009.35	1009.35
718.732	1704.88	1039.64	1003.61	986.34	976.14	967.14	945.74	979.14	941.14	994.74	936.54	961.94	966.14	972.54	965.14	974.94	999.54	988.34	988.34
718.942	1683.64	1040.18	985.48	996.68	964.08	985.68	972.68	944.28	981.48	973.08	962.68	968.28	1009.48	995.08	983.08	950.48	983.08	963.48	963.48
719.152	1648.25	1037.82	964.753	976.02	977.02	960.82	1002.42	948.02	978.42	958.42	934.22	974.02	969.22	977.42	978.42	954.22	969.82	937.02	937.02
719.362	1638.56	1031.58	965.7	937.7	956.3	928.9	970.7	947.3	990.9	952.9	965.3	958.1	954.7	934.7	941.5	952.7	951.3	930.7	930.7
719.572	1616.51	1028.5	947.44	952.84	911.44	936.84	915.74	920.84	961.04	914.44	934.04	935.44	912.24	920.04	922.04	960.84	936.24	962.64	962.64
719.782	1599.38	1035.62	930.5	993.5	931.9	922.7	917.9	935.5	924.7	967.1	931.1	953.9	923.9	897.9	919.9	939.7	944.1	933.7	933.7
719.992	1596.91	1032.54	933.44	945.04	926.44	910.04	915.04	904.04	918.64	942.24	897.64	923.04	918.64	922.04	890.64	938.44	924.64	909.64	909.64
720.201	1567.39	1039.04	926.107	916.44	922.84	907.84	923.84	897.24	909.64	903.04	906.44	908.24	889.84	877.44	891.84	914.84	909.24	910.84	910.84
